%OpenBCI Raw EXG Data
%Number of channels = 4
%Sample Rate = 200 Hz
%Board = OpenBCI_GUI$BoardGanglionBLE
Sample Index, EXG Channel 0, EXG Channel 1, EXG Channel 2, EXG Channel 3, Accel Channel 0, Accel Channel 1, Accel Channel 2, Other, Other, Other, Other, Other, Timestamp, Other, Timestamp (Formatted)
0.0, 538.9382831146941, 541.7114189318381, 579.3909109854139, 555.3751434199512, 0.0, 0.0, 0.0, 0.0, 0.0, 0.0, 0.0, 0.0, 1.706217524317888E9, 0.0, 2024-01-25 13:18:44.317
1.0, 690.9558665635996, 654.0598835507408, 554.7374904775061, 414.73994548618793, 0.0, -0.11200000531971455, 0.0, 0.0, 0.0, 0.0, 0.0, 0.0, 1.70621752434553E9, 0.0, 2024-01-25 13:18:44.345
1.0, 537.1693104356527, 554.8197682765312, 606.6061629629694, 316.81253509642556, 0.0, -0.11200000531971455, 0.0, 0.0, 0.0, 0.0, 0.0, 0.0, 1.70621752434553E9, 0.0, 2024-01-25 13:18:44.345
2.0, 323.48825651733205, 371.79093439504504, 469.1779292412102, 554.1166670848615, -0.06400000303983688, -0.11200000531971455, 0.0, 0.0, 0.0, 0.0, 0.0, 0.0, 1.706217524355877E9, 0.0, 2024-01-25 13:18:44.355
2.0, 240.92248519556597, 184.52292391378433, 613.5025384812616, 418.41439719265327, -0.06400000303983688, -0.11200000531971455, 0.0, 0.0, 0.0, 0.0, 0.0, 0.0, 1.706217524355877E9, 0.0, 2024-01-25 13:18:44.355
3.0, 453.9658861714415, 0.925625239033252, 430.7504571964964, 527.2903647026978, -0.06400000303983688, -0.11200000531971455, 0.0, 0.0, 0.0, 0.0, 0.0, 0.0, 1.706217524363863E9, 0.0, 2024-01-25 13:18:44.363
3.0, 651.9561898256652, 242.80739477323368, 306.0528429239057, 533.1694874330424, -0.06400000303983688, -0.11200000531971455, 0.0, 0.0, 0.0, 0.0, 0.0, 0.0, 1.706217524363863E9, 0.0, 2024-01-25 13:18:44.363
4.0, 689.1027461355552, 142.4247400625609, 173.2826545969583, 421.1819231598638, -0.06400000303983688, -0.11200000531971455, 0.0, 0.0, 0.0, 0.0, 0.0, 0.0, 1.706217524369985E9, 0.0, 2024-01-25 13:18:44.369
4.0, 476.54553215391934, -52.94015382276848, 364.00446268729866, 294.0889029656537, -0.06400000303983688, -0.11200000531971455, 0.0, 0.0, 0.0, 0.0, 0.0, 0.0, 1.706217524369985E9, 0.0, 2024-01-25 13:18:44.369
5.0, 391.84988780738786, -65.17523652780801, 498.47630549408495, 239.3386375643313, -0.06400000303983688, -0.11200000531971455, 0.0, 0.0, 0.0, 0.0, 0.0, 0.0, 1.706217524404932E9, 0.0, 2024-01-25 13:18:44.404
5.0, 533.2760745817795, 39.19602148560807, 585.3635312146507, 123.41295863781124, -0.06400000303983688, -0.11200000531971455, 0.0, 0.0, 0.0, 0.0, 0.0, 0.0, 1.706217524404932E9, 0.0, 2024-01-25 13:18:44.404
6.0, 710.1565129361115, 176.90474770404398, 531.6884870505892, 354.2564134527929, -0.06400000303983688, -0.11200000531971455, 0.0, 0.0, 0.0, 0.0, 0.0, 0.0, 1.706217524411886E9, 0.0, 2024-01-25 13:18:44.411
6.0, 551.5754050649703, 92.21658315742388, 633.6493795425631, 244.57075760234147, -0.06400000303983688, -0.11200000531971455, 0.0, 0.0, 0.0, 0.0, 0.0, 0.0, 1.706217524411886E9, 0.0, 2024-01-25 13:18:44.411
7.0, 342.6552437902428, -75.48988060560077, 478.0153128365055, 45.019045716617256, -0.06400000303983688, -0.11200000531971455, 0.0, 0.0, 0.0, 0.0, 0.0, 0.0, 1.706217524435892E9, 0.0, 2024-01-25 13:18:44.435
7.0, 301.430326578673, -252.39836820960045, 647.6253856769763, -66.26167746493593, -0.06400000303983688, -0.11200000531971455, 0.0, 0.0, 0.0, 0.0, 0.0, 0.0, 1.706217524435892E9, 0.0, 2024-01-25 13:18:44.435
8.0, 479.37476647039875, -16.799630600959063, 456.93723668623716, -12.137845306191593, -0.06400000303983688, -0.11200000531971455, 0.0, 0.0, 0.0, 0.0, 0.0, 0.0, 1.706217524441661E9, 0.0, 2024-01-25 13:18:44.441
8.0, 687.3468631063588, -228.0123505485244, 354.70146154752, 83.28944196319208, -0.06400000303983688, -0.11200000531971455, 0.0, 0.0, 0.0, 0.0, 0.0, 0.0, 1.706217524441661E9, 0.0, 2024-01-25 13:18:44.441
9.0, 697.7194756334648, -310.45096527179703, 176.1361982631497, 9.202023840975016, -0.06400000303983688, -0.11200000531971455, 0.0, 0.0, 0.0, 0.0, 0.0, 0.0, 1.706217524448893E9, 0.0, 2024-01-25 13:18:44.448
9.0, 503.28955673705786, -498.5567133431323, 398.09365078341216, -95.30200062086806, -0.06400000303983688, -0.11200000531971455, 0.0, 0.0, 0.0, 0.0, 0.0, 0.0, 1.706217524448893E9, 0.0, 2024-01-25 13:18:44.448
10.0, 403.1294260737486, -506.315135801211, 554.3130118325353, -190.9405922377482, -0.06400000303983688, -0.11200000531971455, 1.0240000486373901, 0.0, 0.0, 0.0, 0.0, 0.0, 1.706217524452504E9, 0.0, 2024-01-25 13:18:44.452
10.0, 567.4213611772284, -407.12737912638113, 598.4083022600971, -389.7125349827111, -0.06400000303983688, -0.11200000531971455, 1.0240000486373901, 0.0, 0.0, 0.0, 0.0, 0.0, 1.706217524452504E9, 0.0, 2024-01-25 13:18:44.452
11.0, 716.7536964579485, -282.51578255277127, 557.4750972450711, -598.096020613797, -0.06400000303983688, -0.04800000227987766, 1.0240000486373901, 0.0, 0.0, 0.0, 0.0, 0.0, 1.706217524455868E9, 0.0, 2024-01-25 13:18:44.455
11.0, 577.822022954002, -376.39662119047716, 643.3693795274012, -720.6768515114672, -0.06400000303983688, -0.04800000227987766, 1.0240000486373901, 0.0, 0.0, 0.0, 0.0, 0.0, 1.706217524455868E9, 0.0, 2024-01-25 13:18:44.455
12.0, 415.00734833301976, -550.4721345780417, 501.6066017569974, -871.1012375792488, -0.03200000151991844, -0.04800000227987766, 1.0240000486373901, 0.0, 0.0, 0.0, 0.0, 0.0, 1.70621752446187E9, 0.0, 2024-01-25 13:18:44.461
12.0, 320.8067482491024, -736.3451623758301, 674.885516454, -1053.357782119885, -0.03200000151991844, -0.04800000227987766, 1.0240000486373901, 0.0, 0.0, 0.0, 0.0, 0.0, 1.70621752446187E9, 0.0, 2024-01-25 13:18:44.461
13.0, 490.4785294388421, -963.4823763347231, 459.90671725105494, -931.2500485666096, -0.03200000151991844, -0.04800000227987766, 1.0240000486373901, 0.0, 0.0, 0.0, 0.0, 0.0, 1.706217524466646E9, 0.0, 2024-01-25 13:18:44.466
13.0, 705.2609838941135, -718.5974671361037, 341.05830650916323, -863.4007835704833, -0.03200000151991844, -0.04800000227987766, 1.0240000486373901, 0.0, 0.0, 0.0, 0.0, 0.0, 1.706217524466646E9, 0.0, 2024-01-25 13:18:44.466
14.0, 703.6715264129452, -805.9054316016845, 189.30438600713387, -943.8759508170187, -0.03200000151991844, -0.04800000227987766, 1.0240000486373901, 0.0, 0.0, 0.0, 0.0, 0.0, 1.706217524510232E9, 0.0, 2024-01-25 13:18:44.510
14.0, 505.2885332633741, -994.8264778633602, 391.7507804585621, -1134.382714659907, -0.03200000151991844, -0.04800000227987766, 1.0240000486373901, 0.0, 0.0, 0.0, 0.0, 0.0, 1.706217524510232E9, 0.0, 2024-01-25 13:18:44.510
15.0, 422.5750358933583, -1010.8837383231148, 566.448987188749, -1156.730486845132, -0.03200000151991844, -0.04800000227987766, 1.0240000486373901, 0.0, 0.0, 0.0, 0.0, 0.0, 1.706217524516863E9, 0.0, 2024-01-25 13:18:44.516
15.0, 571.0060552847572, -834.4296485637315, 645.5460013016127, -1348.6471929713152, -0.03200000151991844, -0.04800000227987766, 1.0240000486373901, 0.0, 0.0, 0.0, 0.0, 0.0, 1.706217524516863E9, 0.0, 2024-01-25 13:18:44.516
16.0, 741.9849315090105, -759.7569360984489, 574.409364244435, -1540.5788586973213, -0.03200000151991844, -0.04800000227987766, 1.0240000486373901, 0.0, 0.0, 0.0, 0.0, 0.0, 1.706217524523588E9, 0.0, 2024-01-25 13:18:44.523
16.0, 591.2688332446851, -825.498767469544, 681.7744121723808, -1656.5512863732874, -0.03200000151991844, -0.04800000227987766, 1.0240000486373901, 0.0, 0.0, 0.0, 0.0, 0.0, 1.706217524523588E9, 0.0, 2024-01-25 13:18:44.523
17.0, 383.0704726614058, -1044.022991830483, 508.48053787555546, -1786.7839525802992, -0.03200000151991844, -0.04800000227987766, 1.0240000486373901, 0.0, 0.0, 0.0, 0.0, 0.0, 1.706217524528885E9, 0.0, 2024-01-25 13:18:44.528
17.0, 332.29011106304824, -1191.5545652825385, 681.1722882795148, -2009.2182423449121, -0.03200000151991844, -0.04800000227987766, 1.0240000486373901, 0.0, 0.0, 0.0, 0.0, 0.0, 1.706217524528885E9, 0.0, 2024-01-25 13:18:44.528
18.0, 461.72056872956455, -1008.2919876538217, 458.03676727321, -1895.9815514865331, -0.03200000151991844, -0.04800000227987766, 1.0240000486373901, 0.0, 0.0, 0.0, 0.0, 0.0, 1.706217524536008E9, 0.0, 2024-01-25 13:18:44.536
18.0, 665.8181290114298, -1218.4949346133508, 384.8674945901148, -1848.1818901528604, -0.03200000151991844, -0.04800000227987766, 1.0240000486373901, 0.0, 0.0, 0.0, 0.0, 0.0, 1.706217524536008E9, 0.0, 2024-01-25 13:18:44.536
19.0, 725.033834959846, -1270.8198748934083, 188.4068100177683, -1898.853794652503, -0.03200000151991844, -0.04800000227987766, 1.0240000486373901, 0.0, 0.0, 0.0, 0.0, 0.0, 1.706217524542996E9, 0.0, 2024-01-25 13:18:44.542
19.0, 488.8404532582499, -1461.9736414286308, 383.4145434573293, -2104.103244120721, -0.03200000151991844, -0.04800000227987766, 1.0240000486373901, 0.0, 0.0, 0.0, 0.0, 0.0, 1.706217524542996E9, 0.0, 2024-01-25 13:18:44.542
20.0, 409.6088027469814, -1507.6770888371393, 543.9759283550084, -2208.0219742394984, -0.03200000151991844, -0.04800000227987766, 0.5120000243186951, 0.0, 0.0, 0.0, 0.0, 0.0, 1.706217524550879E9, 0.0, 2024-01-25 13:18:44.550
20.0, 606.1012764689513, -1357.8697862620465, 645.048594607506, -2384.2834591511637, -0.03200000151991844, -0.04800000227987766, 0.5120000243186951, 0.0, 0.0, 0.0, 0.0, 0.0, 1.706217524550879E9, 0.0, 2024-01-25 13:18:44.550
21.0, 730.3987214462832, -1252.5074547603726, 584.866124520544, -2539.945575106889, -0.03200000151991844, -0.0800000037997961, 0.5120000243186951, 0.0, 0.0, 0.0, 0.0, 0.0, 1.706217524556397E9, 0.0, 2024-01-25 13:18:44.556
21.0, 588.0076404833235, -1311.311771713663, 683.3975287531503, -2665.5482451687567, -0.03200000151991844, -0.0800000037997961, 0.5120000243186951, 0.0, 0.0, 0.0, 0.0, 0.0, 1.706217524556397E9, 0.0, 2024-01-25 13:18:44.556
22.0, 404.4103418085724, -1526.687000311911, 490.43552058935165, -2813.863327661529, -0.04800000227987766, -0.0800000037997961, 0.5120000243186951, 0.0, 0.0, 0.0, 0.0, 0.0, 1.706217524561884E9, 0.0, 2024-01-25 13:18:44.561
22.0, 294.1730507146567, -1673.9193817675114, 728.8036541151814, -3006.4532157797366, -0.04800000227987766, -0.0800000037997961, 0.5120000243186951, 0.0, 0.0, 0.0, 0.0, 0.0, 1.706217524561884E9, 0.0, 2024-01-25 13:18:44.561
23.0, 491.1161823812872, -1446.6868003597483, 955.7594829262234, -2946.349283591844, -0.04800000227987766, -0.0800000037997961, 0.5120000243186951, 0.0, 0.0, 0.0, 0.0, 0.0, 1.706217524566527E9, 0.0, 2024-01-25 13:18:44.566
23.0, 670.4668246563524, -1221.578482126817, 830.732757457532, -2855.9970405623317, -0.04800000227987766, -0.0800000037997961, 0.5120000243186951, 0.0, 0.0, 0.0, 0.0, 0.0, 1.706217524566527E9, 0.0, 2024-01-25 13:18:44.566
24.0, 679.6426691976376, -1305.438258833252, 680.276582240127, -2922.5261208740994, -0.04800000227987766, -0.0800000037997961, 0.5120000243186951, 0.0, 0.0, 0.0, 0.0, 0.0, 1.706217524574005E9, 0.0, 2024-01-25 13:18:44.574
24.0, 489.93624394526705, -1461.6426602825522, 854.2885173284449, -3117.7264591613784, -0.04800000227987766, -0.0800000037997961, 0.5120000243186951, 0.0, 0.0, 0.0, 0.0, 0.0, 1.706217524574005E9, 0.0, 2024-01-25 13:18:44.574
25.0, 442.53114205691963, -1485.9650996443816, 1071.4196289558895, -3171.399633375462, -0.04800000227987766, -0.0800000037997961, 0.5120000243186951, 0.0, 0.0, 0.0, 0.0, 0.0, 1.706217524580326E9, 0.0, 2024-01-25 13:18:44.580
25.0, 579.824739380274, -1337.1825296571478, 1166.003568785265, -3331.785242975224, -0.04800000227987766, -0.0800000037997961, 0.5120000243186951, 0.0, 0.0, 0.0, 0.0, 0.0, 1.706217524580326E9, 0.0, 2024-01-25 13:18:44.580
26.0, 736.6069553727284, -1235.1674086158164, 1065.6583130741492, -3500.993276570458, -0.04800000227987766, -0.0800000037997961, 0.5120000243186951, 0.0, 0.0, 0.0, 0.0, 0.0, 1.706217524584862E9, 0.0, 2024-01-25 13:18:44.584
26.0, 548.66015304951, -1382.2782433228567, 1124.7711717737839, -3628.3013410121202, -0.04800000227987766, -0.0800000037997961, 0.5120000243186951, 0.0, 0.0, 0.0, 0.0, 0.0, 1.706217524584862E9, 0.0, 2024-01-25 13:18:44.584
27.0, 309.9554285276681, -1574.8363422914408, 941.147693799343, -3823.3689128509723, -0.04800000227987766, -0.0800000037997961, 0.5120000243186951, 0.0, 0.0, 0.0, 0.0, 0.0, 1.706217524596643E9, 0.0, 2024-01-25 13:18:44.596
27.0, 248.73700615298003, -1749.3213747241534, 1102.9899944318458, -4045.3506747209467, -0.04800000227987766, -0.0800000037997961, 0.5120000243186951, 0.0, 0.0, 0.0, 0.0, 0.0, 1.706217524596643E9, 0.0, 2024-01-25 13:18:44.596
28.0, 394.06577853113413, -1522.5450611109845, 1346.7155346442014, -3964.082648683805, -0.04800000227987766, -0.0800000037997961, 0.5120000243186951, 0.0, 0.0, 0.0, 0.0, 0.0, 1.706217524600867E9, 0.0, 2024-01-25 13:18:44.600
28.0, 637.581884345971, -1751.3016517506912, 1270.0718949022703, -3886.9584317975678, -0.04800000227987766, -0.0800000037997961, 0.5120000243186951, 0.0, 0.0, 0.0, 0.0, 0.0, 1.706217524600867E9, 0.0, 2024-01-25 13:18:44.600
29.0, 658.785247144755, -1833.4410744775087, 1135.0428070020862, -3982.172544769477, -0.04800000227987766, -0.0800000037997961, 0.5120000243186951, 0.0, 0.0, 0.0, 0.0, 0.0, 1.706217524628991E9, 0.0, 2024-01-25 13:18:44.628
29.0, 414.0349743445404, -2019.1121476776898, 1300.841921787709, -4170.869197033811, -0.04800000227987766, -0.0800000037997961, 0.5120000243186951, 0.0, 0.0, 0.0, 0.0, 0.0, 1.706217524628991E9, 0.0, 2024-01-25 13:18:44.628
30.0, 352.5416693231091, -2040.962513168808, 1446.4549265624955, -4240.848335054703, -0.04800000227987766, -0.0800000037997961, 0.7680000364780426, 0.0, 0.0, 0.0, 0.0, 0.0, 1.706217524635197E9, 0.0, 2024-01-25 13:18:44.635
30.0, 516.4857937307097, -1933.2440446950495, 1531.633018003311, -4387.377615318634, -0.04800000227987766, -0.0800000037997961, 0.7680000364780426, 0.0, 0.0, 0.0, 0.0, 0.0, 1.706217524635197E9, 0.0, 2024-01-25 13:18:44.635
31.0, 663.2637773416936, -1822.4551183576696, 1476.5218522562645, -4611.902509158477, -0.04800000227987766, -0.09600000455975533, 0.7680000364780426, 0.0, 0.0, 0.0, 0.0, 0.0, 1.706217524641886E9, 0.0, 2024-01-25 13:18:44.641
31.0, 485.9943893919699, -1924.5151181984693, 1549.5583584909327, -4687.188565216493, -0.04800000227987766, -0.09600000455975533, 0.7680000364780426, 0.0, 0.0, 0.0, 0.0, 0.0, 1.706217524641886E9, 0.0, 2024-01-25 13:18:44.641
32.0, 322.5663711782545, -2097.132070603315, 1397.4510174430907, -4813.774828966707, -0.04800000227987766, -0.09600000455975533, 0.7680000364780426, 0.0, 0.0, 0.0, 0.0, 0.0, 1.706217524647839E9, 0.0, 2024-01-25 13:18:44.647
32.0, 245.82736398745328, -2235.4560103644617, 1589.9417982124723, -5027.042623939924, -0.04800000227987766, -0.09600000455975533, 0.7680000364780426, 0.0, 0.0, 0.0, 0.0, 0.0, 1.706217524647839E9, 0.0, 2024-01-25 13:18:44.647
33.0, 399.91872196178883, -2034.2643523481674, 1353.6119101624936, -4964.915405876003, -0.04800000227987766, -0.09600000455975533, 0.7680000364780426, 0.0, 0.0, 0.0, 0.0, 0.0, 1.706217524675507E9, 0.0, 2024-01-25 13:18:44.675
33.0, 606.2864015167579, -1800.8871153132059, 1251.585569421295, -4899.074467156082, -0.04800000227987766, -0.09600000455975533, 0.7680000364780426, 0.0, 0.0, 0.0, 0.0, 0.0, 1.706217524675507E9, 0.0, 2024-01-25 13:18:44.675
34.0, 662.8056395971216, -1850.1976962289773, 1115.2400367367081, -4973.128226178698, -0.04800000227987766, -0.09600000455975533, 0.7680000364780426, 0.0, 0.0, 0.0, 0.0, 0.0, 1.706217524680992E9, 0.0, 2024-01-25 13:18:44.680
34.0, 436.0106264841743, -2040.517465074081, 1272.5271392231807, -5118.501877356321, -0.04800000227987766, -0.09600000455975533, 0.7680000364780426, 0.0, 0.0, 0.0, 0.0, 0.0, 1.706217524680992E9, 0.0, 2024-01-25 13:18:44.680
35.0, 375.6579909492284, -2054.3681845599785, 1466.253956927918, -5242.096221141983, -0.04800000227987766, -0.09600000455975533, 0.7680000364780426, 0.0, 0.0, 0.0, 0.0, 0.0, 1.706217524687843E9, 0.0, 2024-01-25 13:18:44.687
35.0, 530.484239264857, -1928.1746103051119, 1564.6413750122301, -5351.869764641393, -0.04800000227987766, -0.09600000455975533, 0.7680000364780426, 0.0, 0.0, 0.0, 0.0, 0.0, 1.706217524687843E9, 0.0, 2024-01-25 13:18:44.687
36.0, 672.5424691317603, -1812.8230060217902, 1472.415442104917, -5570.769848947879, -0.04800000227987766, -0.09600000455975533, 0.7680000364780426, 0.0, 0.0, 0.0, 0.0, 0.0, 1.706217524694314E9, 0.0, 2024-01-25 13:18:44.694
36.0, 502.0011612023227, -1933.9602355365641, 1553.462814044673, -5674.32954867091, -0.04800000227987766, -0.09600000455975533, 0.7680000364780426, 0.0, 0.0, 0.0, 0.0, 0.0, 1.706217524694314E9, 0.0, 2024-01-25 13:18:44.694
37.0, 355.97115758247674, -2069.077211085707, 1431.6112636383623, -5800.369787027594, -0.04800000227987766, -0.09600000455975533, 0.7680000364780426, 0.0, 0.0, 0.0, 0.0, 0.0, 1.706217524702889E9, 0.0, 2024-01-25 13:18:44.702
37.0, 289.393458571285, -2216.9191962340847, 1642.5098319896497, -5985.363938335795, -0.04800000227987766, -0.09600000455975533, 0.7680000364780426, 0.0, 0.0, 0.0, 0.0, 0.0, 1.706217524702889E9, 0.0, 2024-01-25 13:18:44.702
38.0, 393.42625563871115, -2047.8682384369895, 1864.6636292575859, -5932.64630856039, -0.04800000227987766, -0.09600000455975533, 0.7680000364780426, 0.0, 0.0, 0.0, 0.0, 0.0, 1.706217524734875E9, 0.0, 2024-01-25 13:18:44.734
38.0, 167.3923121667467, -2248.4222435108386, 1750.5835909591988, -5838.872057071421, -0.04800000227987766, -0.09600000455975533, 0.7680000364780426, 0.0, 0.0, 0.0, 0.0, 0.0, 1.706217524734875E9, 0.0, 2024-01-25 13:18:44.734
39.0, 176.2278258120641, -2296.2144250446, 1623.0455226702616, -5892.715396733489, -0.04800000227987766, -0.09600000455975533, 0.7680000364780426, 0.0, 0.0, 0.0, 0.0, 0.0, 1.706217524740959E9, 0.0, 2024-01-25 13:18:44.740
39.0, -64.79376673232764, -2523.880834847223, 1763.4768960564397, -6078.191995135974, -0.04800000227987766, -0.09600000455975533, 0.7680000364780426, 0.0, 0.0, 0.0, 0.0, 0.0, 1.706217524740959E9, 0.0, 2024-01-25 13:18:44.740
40.0, -143.99175814399496, -2543.5919775636867, 1921.166037788149, -6212.336596696638, -0.04800000227987766, -0.09600000455975533, 0.8960000425577164, 0.0, 0.0, 0.0, 0.0, 0.0, 1.706217524746896E9, 0.0, 2024-01-25 13:18:44.746
40.0, 84.43946119956672, -2368.5590497874655, 2055.340558548458, -6323.168531883508, -0.04800000227987766, -0.09600000455975533, 0.8960000425577164, 0.0, 0.0, 0.0, 0.0, 0.0, 1.706217524746896E9, 0.0, 2024-01-25 13:18:44.746
41.0, 172.20556340971962, -2288.074532791041, 2000.9437136929482, -6533.231232594699, -0.04800000227987766, -0.09600000455975533, 0.8960000425577164, 0.0, 0.0, 0.0, 0.0, 0.0, 1.706217524750869E9, 0.0, 2024-01-25 13:18:44.750
41.0, 2.053205075673759, -2425.7383802100085, 2008.6030288022012, -6687.085106921848, -0.04800000227987766, -0.09600000455975533, 0.8960000425577164, 0.0, 0.0, 0.0, 0.0, 0.0, 1.706217524750869E9, 0.0, 2024-01-25 13:18:44.750
42.0, -154.10818752413616, -2571.252277635969, 1896.9464456751011, -6782.301089843735, -0.04800000227987766, -0.09600000455975533, 0.8960000425577164, 0.0, 0.0, 0.0, 0.0, 0.0, 1.706217524755873E9, 0.0, 2024-01-25 13:18:44.755
42.0, -241.83128088479862, -2742.09464751184, 2073.5688309324905, -6944.444452422671, -0.04800000227987766, -0.09600000455975533, 0.8960000425577164, 0.0, 0.0, 0.0, 0.0, 0.0, 1.706217524755873E9, 0.0, 2024-01-25 13:18:44.755
43.0, -98.78758737957105, -2528.7221353398636, 1844.677603894379, -6955.957734436262, -0.04800000227987766, -0.09600000455975533, 0.8960000425577164, 0.0, 0.0, 0.0, 0.0, 0.0, 1.706217524764865E9, 0.0, 2024-01-25 13:18:44.764
43.0, -336.14594791736454, -2732.4026967766695, 1738.7542873993516, -6845.511008944828, -0.04800000227987766, -0.09600000455975533, 0.8960000425577164, 0.0, 0.0, 0.0, 0.0, 0.0, 1.706217524764865E9, 0.0, 2024-01-25 13:18:44.764
44.0, -308.55483599426225, -2790.251469291281, 1622.836088272743, -6890.468346312176, -0.04800000227987766, -0.09600000455975533, 0.8960000425577164, 0.0, 0.0, 0.0, 0.0, 0.0, 1.706217524772875E9, 0.0, 2024-01-25 13:18:44.772
44.0, -89.52946503926069, -3013.7254512435757, 1741.2618903196417, -7113.957287864294, -0.04800000227987766, -0.09600000455975533, 0.8960000425577164, 0.0, 0.0, 0.0, 0.0, 0.0, 1.706217524772875E9, 0.0, 2024-01-25 13:18:44.772
45.0, -119.7422468313016, -3041.8999875597656, 1959.3429365358315, -7172.724205818027, -0.04800000227987766, -0.09600000455975533, 0.8960000425577164, 0.0, 0.0, 0.0, 0.0, 0.0, 1.706217524795205E9, 0.0, 2024-01-25 13:18:44.795
45.0, 72.6999152386561, -2849.8579947850667, 2069.971047175117, -7313.471600750461, -0.04800000227987766, -0.09600000455975533, 0.8960000425577164, 0.0, 0.0, 0.0, 0.0, 0.0, 1.706217524795205E9, 0.0, 2024-01-25 13:18:44.795
46.0, 210.05709086125717, -2765.742034931667, 2012.6869995538145, -7528.3512926045805, -0.04800000227987766, -0.09600000455975533, 0.8960000425577164, 0.0, 0.0, 0.0, 0.0, 0.0, 1.70621752479986E9, 0.0, 2024-01-25 13:18:44.799
46.0, 11.541331263259053, -2910.276078569237, 2018.0387963904068, -7684.909114599694, -0.04800000227987766, -0.09600000455975533, 0.8960000425577164, 0.0, 0.0, 0.0, 0.0, 0.0, 1.70621752479986E9, 0.0, 2024-01-25 13:18:44.799
47.0, -129.49964581569657, -3022.7629194865003, 1949.3723632539622, -7761.4106381433085, -0.04800000227987766, -0.09600000455975533, 0.8960000425577164, 0.0, 0.0, 0.0, 0.0, 0.0, 1.706217524805867E9, 0.0, 2024-01-25 13:18:44.805
47.0, -208.6321889781393, -3199.4582327930257, 2112.8116011675447, -7924.810607107356, -0.04800000227987766, -0.09600000455975533, 0.8960000425577164, 0.0, 0.0, 0.0, 0.0, 0.0, 1.706217524805867E9, 0.0, 2024-01-25 13:18:44.805
48.0, -97.45618299534544, -3026.697294239886, 2316.658588152379, -7908.040895706043, -0.04800000227987766, -0.09600000455975533, 0.8960000425577164, 0.0, 0.0, 0.0, 0.0, 0.0, 1.706217524810208E9, 0.0, 2024-01-25 13:18:44.810
48.0, 146.5685492134653, -3209.210021927487, 2261.6876686536707, -7791.9955399809405, -0.04800000227987766, -0.09600000455975533, 0.8960000425577164, 0.0, 0.0, 0.0, 0.0, 0.0, 1.706217524810208E9, 0.0, 2024-01-25 13:18:44.810
49.0, 184.45186581462622, -3292.8940233360045, 2111.792478429619, -7834.81739447359, -0.04800000227987766, -0.09600000455975533, 0.8960000425577164, 0.0, 0.0, 0.0, 0.0, 0.0, 1.706217524815533E9, 0.0, 2024-01-25 13:18:44.815
49.0, 411.4095645756461, -3493.1731457631104, 2269.741543208249, -8073.206097449176, -0.04800000227987766, -0.09600000455975533, 0.8960000425577164, 0.0, 0.0, 0.0, 0.0, 0.0, 1.706217524815533E9, 0.0, 2024-01-25 13:18:44.815
50.0, 348.2669636737555, -3509.4323608204722, 2449.211862281896, -8134.119717977475, -0.04800000227987766, -0.09600000455975533, 0.9600000455975533, 0.0, 0.0, 0.0, 0.0, 0.0, 1.706217524823866E9, 0.0, 2024-01-25 13:18:44.823
50.0, 542.2985832248814, -3340.3608335736208, 2581.4266754654236, -8219.531553165521, -0.04800000227987766, -0.09600000455975533, 0.9600000455975533, 0.0, 0.0, 0.0, 0.0, 0.0, 1.706217524823866E9, 0.0, 2024-01-25 13:18:44.823
51.0, 705.90611663647, -3237.096585947089, 2504.3735166783445, -8444.03400760563, -0.04800000227987766, -0.09600000455975533, 0.9600000455975533, 0.0, 0.0, 0.0, 0.0, 0.0, 1.706217524830867E9, 0.0, 2024-01-25 13:18:44.830
51.0, 501.9637622027658, -3383.3734229640104, 2533.698072230909, -8626.07924779877, -0.04800000227987766, -0.09600000455975533, 0.9600000455975533, 0.0, 0.0, 0.0, 0.0, 0.0, 1.706217524830867E9, 0.0, 2024-01-25 13:18:44.830
52.0, 335.14739462919533, -3524.0478898473084, 2398.259465285577, -8691.398470474873, -0.06400000303983688, -0.09600000455975533, 0.9600000455975533, 0.0, 0.0, 0.0, 0.0, 0.0, 1.706217524836838E9, 0.0, 2024-01-25 13:18:44.836
52.0, 286.8802458010614, -3679.1191016100347, 2600.5226046391763, -8871.067004246172, -0.06400000303983688, -0.09600000455975533, 0.9600000455975533, 0.0, 0.0, 0.0, 0.0, 0.0, 1.706217524836838E9, 0.0, 2024-01-25 13:18:44.836
53.0, 417.006324859336, -3498.5118529498577, 2793.916571247857, -8933.95155205112, -0.06400000303983688, -0.09600000455975533, 0.9600000455975533, 0.0, 0.0, 0.0, 0.0, 0.0, 1.706217524852613E9, 0.0, 2024-01-25 13:18:44.852
53.0, 661.3489485643804, -3676.906950786244, 2768.206629002467, -8791.955030533485, -0.06400000303983688, -0.09600000455975533, 0.9600000455975533, 0.0, 0.0, 0.0, 0.0, 0.0, 1.706217524852613E9, 0.0, 2024-01-25 13:18:44.852
54.0, 697.4782520863228, -3737.440971469041, 2618.9023429714143, -8829.286711891182, -0.06400000303983688, -0.09600000455975533, 0.9600000455975533, 0.0, 0.0, 0.0, 0.0, 0.0, 1.706217524859864E9, 0.0, 2024-01-25 13:18:44.859
54.0, 939.676043166779, -3959.886480933521, 2764.9809652906843, -8600.193530255463, -0.06400000303983688, -0.09600000455975533, 0.9600000455975533, 0.0, 0.0, 0.0, 0.0, 0.0, 1.706217524859864E9, 0.0, 2024-01-25 13:18:44.859
55.0, 855.5376439136453, -4009.6439798939973, 2948.703550613951, -8645.062979973853, -0.06400000303983688, -0.09600000455975533, 0.9600000455975533, 0.0, 0.0, 0.0, 0.0, 0.0, 1.706217524868197E9, 0.0, 2024-01-25 13:18:44.868
55.0, 1063.0403831051663, -3821.9739301675, 3091.6780559699982, -8756.900948248804, -0.06400000303983688, -0.09600000455975533, 0.9600000455975533, 0.0, 0.0, 0.0, 0.0, 0.0, 1.706217524868197E9, 0.0, 2024-01-25 13:18:44.868
56.0, 1187.9698711750098, -3762.152360426262, 2975.9281523413956, -8961.106965629384, -0.06400000303983688, -0.09600000455975533, 0.9600000455975533, 0.0, 0.0, 0.0, 0.0, 0.0, 1.706217524882881E9, 0.0, 2024-01-25 13:18:44.882
56.0, 989.4765509767458, -3911.9970620009117, 3016.5285062603652, -9096.665249373298, -0.06400000303983688, -0.09600000455975533, 0.9600000455975533, 0.0, 0.0, 0.0, 0.0, 0.0, 1.706217524882881E9, 0.0, 2024-01-25 13:18:44.882
57.0, 853.1815069415607, -4036.0813326807693, 2913.1296222354285, -9229.108196454123, -0.06400000303983688, -0.09600000455975533, 0.9600000455975533, 0.0, 0.0, 0.0, 0.0, 0.0, 1.706217524889191E9, 0.0, 2024-01-25 13:18:44.889
57.0, 783.2640772699378, -4165.410813048482, 3101.076424558647, -9385.095683705993, -0.06400000303983688, -0.09600000455975533, 0.9600000455975533, 0.0, 0.0, 0.0, 0.0, 0.0, 1.706217524889191E9, 0.0, 2024-01-25 13:18:44.889
58.0, 915.6976746008731, -3996.2663577524945, 3312.1675977576524, -9375.936668714508, -0.06400000303983688, -0.09600000455975533, 0.9600000455975533, 0.0, 0.0, 0.0, 0.0, 0.0, 1.706217524898213E9, 0.0, 2024-01-25 13:18:44.898
58.0, 1143.210748505313, -4202.14224046329, 3229.7458125841804, -9327.321709190495, -0.06400000303983688, -0.09600000455975533, 0.9600000455975533, 0.0, 0.0, 0.0, 0.0, 0.0, 1.706217524898213E9, 0.0, 2024-01-25 13:18:44.898
59.0, 1175.413157073781, -4264.45271362504, 3110.663658095058, -9335.25777689647, -0.06400000303983688, -0.09600000455975533, 0.9600000455975533, 0.0, 0.0, 0.0, 0.0, 0.0, 1.70621752491498E9, 0.0, 2024-01-25 13:18:44.914
59.0, 1404.3118639118038, -4487.657422780525, 3267.872222682461, -9576.571081637405, -0.06400000303983688, -0.09600000455975533, 0.9600000455975533, 0.0, 0.0, 0.0, 0.0, 0.0, 1.70621752491498E9, 0.0, 2024-01-25 13:18:44.914
60.0, 1328.8014138564467, -4531.01221301686, 3405.23126825504, -9653.282039578538, -0.06400000303983688, -0.09600000455975533, 0.9920000471174717, 0.0, 0.0, 0.0, 0.0, 0.0, 1.70621752492819E9, 0.0, 2024-01-25 13:18:44.928
60.0, 1557.3485700986348, -4350.53773080511, 3554.0175781422295, -9731.864817447495, -0.06400000303983688, -0.09600000455975533, 0.9920000471174717, 0.0, 0.0, 0.0, 0.0, 0.0, 1.70621752492819E9, 0.0, 2024-01-25 13:18:44.928
61.0, 1658.0360266556963, -4258.373506247066, 3469.417301244568, -9954.55716030905, -0.06400000303983688, -0.11200000531971455, 0.9920000471174717, 0.0, 0.0, 0.0, 0.0, 0.0, 1.706217524934865E9, 0.0, 2024-01-25 13:18:44.934
61.0, 1458.1290242741816, -4413.801878455561, 3489.235031109769, -10125.977344728075, -0.06400000303983688, -0.11200000531971455, 0.9920000471174717, 0.0, 0.0, 0.0, 0.0, 0.0, 1.706217524934865E9, 0.0, 2024-01-25 13:18:44.934
62.0, 1349.0380125166848, -4498.744356199168, 3404.1055583683774, -10197.841392326634, -0.06400000303983688, -0.11200000531971455, 0.9920000471174717, 0.0, 0.0, 0.0, 0.0, 0.0, 1.706217524957193E9, 0.0, 2024-01-25 13:18:44.957
62.0, 1271.5996440341696, -4640.856814615428, 3619.1180166709237, -10348.996928835753, -0.06400000303983688, -0.11200000531971455, 0.9920000471174717, 0.0, 0.0, 0.0, 0.0, 0.0, 1.706217524957193E9, 0.0, 2024-01-25 13:18:44.957
63.0, 1368.4630528865382, -4461.468773340806, 3822.16466506524, -10371.045509024523, -0.06400000303983688, -0.11200000531971455, 0.9920000471174717, 0.0, 0.0, 0.0, 0.0, 0.0, 1.706217524975853E9, 0.0, 2024-01-25 13:18:44.975
63.0, 1138.8388054571114, -4689.795275485609, 3713.7617948995903, -10259.084124051034, -0.06400000303983688, -0.11200000531971455, 0.9920000471174717, 0.0, 0.0, 0.0, 0.0, 0.0, 1.706217524975853E9, 0.0, 2024-01-25 13:18:44.975
64.0, 1181.658789999783, -4748.9455331848, 3641.25635445863, -10311.330526432022, -0.06400000303983688, -0.11200000531971455, 0.9920000471174717, 0.0, 0.0, 0.0, 0.0, 0.0, 1.706217524982948E9, 0.0, 2024-01-25 13:18:44.982
64.0, 1394.576904327143, -4949.774420905393, 3743.350013399031, -10551.671457184479, -0.06400000303983688, -0.11200000531971455, 0.9920000471174717, 0.0, 0.0, 0.0, 0.0, 0.0, 1.706217524982948E9, 0.0, 2024-01-25 13:18:44.982
65.0, 1315.7566428110003, -5007.415628972463, 3888.2636568821035, -10590.523407874163, -0.06400000303983688, -0.11200000531971455, 0.9920000471174717, 0.0, 0.0, 0.0, 0.0, 0.0, 1.706217524988856E9, 0.0, 2024-01-25 13:18:44.988
65.0, 1544.415996051859, -4831.870334902313, 4058.7264269124717, -10705.547770911362, -0.06400000303983688, -0.11200000531971455, 0.9920000471174717, 0.0, 0.0, 0.0, 0.0, 0.0, 1.706217524988856E9, 0.0, 2024-01-25 13:18:44.988
66.0, 1689.2305321861058, -4732.585340828635, 3980.917808334343, -10918.30319959065, -0.06400000303983688, -0.11200000531971455, 0.9920000471174717, 0.0, 0.0, 0.0, 0.0, 0.0, 1.706217524993508E9, 0.0, 2024-01-25 13:18:44.993
66.0, 1451.12793155713, -4890.979453701992, 3972.766696380917, -11102.902791453525, -0.06400000303983688, -0.11200000531971455, 0.9920000471174717, 0.0, 0.0, 0.0, 0.0, 0.0, 1.706217524993508E9, 0.0, 2024-01-25 13:18:44.993
67.0, 1318.9542572731152, -5025.711219555698, 3884.424649577588, -11179.99521919014, -0.06400000303983688, -0.11200000531971455, 0.9920000471174717, 0.0, 0.0, 0.0, 0.0, 0.0, 1.706217524997848E9, 0.0, 2024-01-25 13:18:44.997
67.0, 1259.4786282777786, -5149.184016592801, 4090.2930524884723, -11337.15329512814, -0.06400000303983688, -0.11200000531971455, 0.9920000471174717, 0.0, 0.0, 0.0, 0.0, 0.0, 1.706217524997848E9, 0.0, 2024-01-25 13:18:44.997
68.0, 1354.8460771478713, -4964.133766785264, 4271.82779633766, -11394.966538593173, -0.06400000303983688, -0.11200000531971455, 0.9920000471174717, 0.0, 0.0, 0.0, 0.0, 0.0, 1.706217525033863E9, 0.0, 2024-01-25 13:18:45.033
68.0, 1157.0296788415872, -5154.896713775117, 4247.890566671267, -11219.673687770031, -0.06400000303983688, -0.11200000531971455, 0.9920000471174717, 0.0, 0.0, 0.0, 0.0, 0.0, 1.706217525033863E9, 0.0, 2024-01-25 13:18:45.033
69.0, 1212.6027222331613, -5194.636890704278, 4098.036515346728, -11241.335188313387, -0.06400000303983688, -0.11200000531971455, 0.9920000471174717, 0.0, 0.0, 0.0, 0.0, 0.0, 1.706217525037947E9, 0.0, 2024-01-25 13:18:45.037
69.0, 1414.0767426961102, -4962.604147703387, 4235.135637872387, -11027.022091302555, -0.06400000303983688, -0.11200000531971455, 0.9920000471174717, 0.0, 0.0, 0.0, 0.0, 0.0, 1.706217525037947E9, 0.0, 2024-01-25 13:18:45.037
70.0, 1333.5323873003945, -4973.687341222074, 4423.47699964093, -11117.802552876994, -0.06400000303983688, -0.11200000531971455, 1.008000047877431, 0.0, 0.0, 0.0, 0.0, 0.0, 1.706217525043857E9, 0.0, 2024-01-25 13:18:45.043
70.0, 1575.8984738788567, -4782.2661718400195, 4579.002609248273, -11147.104669029824, -0.06400000303983688, -0.11200000531971455, 1.008000047877431, 0.0, 0.0, 0.0, 0.0, 0.0, 1.706217525043857E9, 0.0, 2024-01-25 13:18:45.043
71.0, 1649.81572655309, -4744.345456239302, 4442.279346668161, -10912.876604754943, -0.06400000303983688, -0.11200000531971455, 1.008000047877431, 0.0, 0.0, 0.0, 0.0, 0.0, 1.706217525048856E9, 0.0, 2024-01-25 13:18:45.048
71.0, 1443.5321947471239, -4900.734982736409, 4479.891520522535, -11115.352918406017, -0.06400000303983688, -0.11200000531971455, 1.008000047877431, 0.0, 0.0, 0.0, 0.0, 0.0, 1.706217525048856E9, 0.0, 2024-01-25 13:18:45.048
72.0, 1318.3708328800276, -4999.530049915891, 4372.10947374953, -11187.175827105064, -0.06400000303983688, -0.11200000531971455, 1.008000047877431, 0.0, 0.0, 0.0, 0.0, 0.0, 1.706217525057196E9, 0.0, 2024-01-25 13:18:45.057
72.0, 1278.5932569513097, -5163.461084673647, 4588.659030933864, -11294.959743828047, -0.06400000303983688, -0.11200000531971455, 1.008000047877431, 0.0, 0.0, 0.0, 0.0, 0.0, 1.706217525057196E9, 0.0, 2024-01-25 13:18:45.057
73.0, 1348.6079240217805, -4994.656960273627, 4754.991081463173, -11387.352102283388, -0.06400000303983688, -0.11200000531971455, 1.008000047877431, 0.0, 0.0, 0.0, 0.0, 0.0, 1.706217525064181E9, 0.0, 2024-01-25 13:18:45.064
73.0, 1116.8594134175219, -5203.2405305523425, 4720.080985326786, -11254.566954356618, -0.06400000303983688, -0.11200000531971455, 1.008000047877431, 0.0, 0.0, 0.0, 0.0, 0.0, 1.706217525064181E9, 0.0, 2024-01-25 13:18:45.064
74.0, 1205.4969123173505, -5213.951604025438, 4596.810142887291, -11233.161636960227, -0.06400000303983688, -0.11200000531971455, 1.008000047877431, 0.0, 0.0, 0.0, 0.0, 0.0, 1.706217525070947E9, 0.0, 2024-01-25 13:18:45.070
74.0, 1381.393756983336, -4987.913920653518, 4683.431835711002, -11042.222914672457, -0.06400000303983688, -0.11200000531971455, 1.008000047877431, 0.0, 0.0, 0.0, 0.0, 0.0, 1.706217525070947E9, 0.0, 2024-01-25 13:18:45.070
75.0, 1306.59388791956, -5029.585755909793, 4885.966117811389, -11134.375919530634, -0.06400000303983688, -0.11200000531971455, 1.008000047877431, 0.0, 0.0, 0.0, 0.0, 0.0, 1.706217525075875E9, 0.0, 2024-01-25 13:18:45.075
75.0, 1541.461475086864, -4831.571142905857, 5056.728079838213, -11176.25531923445, -0.06400000303983688, -0.11200000531971455, 1.008000047877431, 0.0, 0.0, 0.0, 0.0, 0.0, 1.706217525075875E9, 0.0, 2024-01-25 13:18:45.075
76.0, 1689.843875778839, -4712.573136165738, 4935.226210077759, -10940.164784781635, -0.06400000303983688, -0.11200000531971455, 1.008000047877431, 0.0, 0.0, 0.0, 0.0, 0.0, 1.706217525079846E9, 0.0, 2024-01-25 13:18:45.079
76.0, 1930.547576826997, -4892.991519878153, 4924.790019251406, -11093.12856291933, -0.06400000303983688, -0.11200000531971455, 1.008000047877431, 0.0, 0.0, 0.0, 0.0, 0.0, 1.706217525079846E9, 0.0, 2024-01-25 13:18:45.079
77.0, 1832.133979442995, -4986.950896414928, 4880.043986231554, -11148.86990180891, -0.06400000303983688, -0.11200000531971455, 1.008000047877431, 0.0, 0.0, 0.0, 0.0, 0.0, 1.706217525125847E9, 0.0, 2024-01-25 13:18:45.125
77.0, 1729.4064074601047, -5168.926948458888, 5076.51402055379, -11316.290263225324, -0.06400000303983688, -0.11200000531971455, 1.008000047877431, 0.0, 0.0, 0.0, 0.0, 0.0, 1.706217525125847E9, 0.0, 2024-01-25 13:18:45.125
78.0, 1824.9122326285578, -5017.079530457966, 5227.254428167827, -11414.217673615087, -0.06400000303983688, -0.11200000531971455, 1.008000047877431, 0.0, 0.0, 0.0, 0.0, 0.0, 1.706217525133885E9, 0.0, 2024-01-25 13:18:45.133
78.0, 1664.6444298774004, -5177.822300503496, 5202.931988805998, -11280.557389098685, -0.06400000303983688, -0.11200000531971455, 1.008000047877431, 0.0, 0.0, 0.0, 0.0, 0.0, 1.706217525133885E9, 0.0, 2024-01-25 13:18:45.133
79.0, 1700.6278773010708, -5231.171973371413, 5103.11779888859, -11271.557319855317, -0.06400000303983688, -0.11200000531971455, 1.008000047877431, 0.0, 0.0, 0.0, 0.0, 0.0, 1.706217525138027E9, 0.0, 2024-01-25 13:18:45.138
79.0, 1879.2810282343999, -5024.379815171473, 5128.438791538589, -11076.97219511075, -0.06400000303983688, -0.11200000531971455, 1.008000047877431, 0.0, 0.0, 0.0, 0.0, 0.0, 1.706217525138027E9, 0.0, 2024-01-25 13:18:45.138
80.0, 1791.9711938188411, -4999.950788660906, 5328.448641168885, -11133.248339693993, -0.06400000303983688, -0.11200000531971455, 1.008000047877431, 0.0, 0.0, 0.0, 0.0, 0.0, 1.706217525145839E9, 0.0, 2024-01-25 13:18:45.145
80.0, 2029.445491255261, -4847.132866621483, 5544.115581963677, -11142.328816786408, -0.06400000303983688, -0.11200000531971455, 1.008000047877431, 0.0, 0.0, 0.0, 0.0, 0.0, 1.706217525145839E9, 0.0, 2024-01-25 13:18:45.145
81.0, 2177.6670762491412, -4741.030034928583, 5442.614697166253, -10937.298151465598, -0.06400000303983688, -0.11200000531971455, 1.008000047877431, 0.0, 0.0, 0.0, 0.0, 0.0, 1.706217525151847E9, 0.0, 2024-01-25 13:18:45.151
81.0, 2402.8127934816293, -4876.14327057777, 5398.833558334969, -11116.317812594585, -0.06400000303983688, -0.11200000531971455, 1.008000047877431, 0.0, 0.0, 0.0, 0.0, 0.0, 1.706217525151847E9, 0.0, 2024-01-25 13:18:45.151
82.0, 2311.396548914723, -5000.444455455057, 5377.9630466322415, -11176.670448129531, -0.04800000227987766, -0.11200000531971455, 1.008000047877431, 0.0, 0.0, 0.0, 0.0, 0.0, 1.706217525156201E9, 0.0, 2024-01-25 13:18:45.156
82.0, 2272.21361707896, -5146.655844222754, 5578.487132506445, -11331.659382093232, -0.04800000227987766, -0.11200000531971455, 1.008000047877431, 0.0, 0.0, 0.0, 0.0, 0.0, 1.706217525156201E9, 0.0, 2024-01-25 13:18:45.156
83.0, 2302.1627359241247, -5016.466186865233, 5731.54627809301, -11378.22300649155, -0.04800000227987766, -0.11200000531971455, 1.008000047877431, 0.0, 0.0, 0.0, 0.0, 0.0, 1.706217525162844E9, 0.0, 2024-01-25 13:18:45.162
83.0, 2107.8468839763664, -5205.856590571348, 5690.899175424594, -11218.907008279115, -0.04800000227987766, -0.11200000531971455, 1.008000047877431, 0.0, 0.0, 0.0, 0.0, 0.0, 1.706217525162844E9, 0.0, 2024-01-25 13:18:45.162
84.0, 2205.78177416604, -5205.402192726731, 5608.7747122976, -11258.501329110004, -0.04800000227987766, -0.11200000531971455, 1.008000047877431, 0.0, 0.0, 0.0, 0.0, 0.0, 1.706217525170943E9, 0.0, 2024-01-25 13:18:45.170
84.0, 2392.531808503438, -5423.6477945409715, 5746.876128011383, -11078.60279149143, -0.04800000227987766, -0.11200000531971455, 1.008000047877431, 0.0, 0.0, 0.0, 0.0, 0.0, 1.706217525170943E9, 0.0, 2024-01-25 13:18:45.170
85.0, 2301.025806337595, -5487.306501636747, 5864.813873114064, -11103.463776446879, -0.04800000227987766, -0.11200000531971455, 1.008000047877431, 0.0, 0.0, 0.0, 0.0, 0.0, 1.706217525182849E9, 0.0, 2024-01-25 13:18:45.182
85.0, 2077.592963284813, -5287.455597754568, 6030.022083706688, -11133.727046888322, -0.04800000227987766, -0.11200000531971455, 1.008000047877431, 0.0, 0.0, 0.0, 0.0, 0.0, 1.706217525182849E9, 0.0, 2024-01-25 13:18:45.182
86.0, 2165.1084921979345, -5223.4079410634, 5898.055973870214, -10933.748986407649, -0.04800000227987766, -0.11200000531971455, 1.008000047877431, 0.0, 0.0, 0.0, 0.0, 0.0, 1.706217525201871E9, 0.0, 2024-01-25 13:18:45.201
86.0, 1952.4895698670298, -5395.875297470018, 5905.139344386291, -11156.24498452153, -0.04800000227987766, -0.11200000531971455, 1.008000047877431, 0.0, 0.0, 0.0, 0.0, 0.0, 1.706217525201871E9, 0.0, 2024-01-25 13:18:45.201
87.0, 1828.9812437803484, -5450.068317777943, 5909.571125833783, -11173.570071066264, -0.04800000227987766, -0.11200000531971455, 1.008000047877431, 0.0, 0.0, 0.0, 0.0, 0.0, 1.706217525205852E9, 0.0, 2024-01-25 13:18:45.205
87.0, 1790.538812135812, -5613.95447373623, 6091.6836842261255, -11272.628801192623, -0.04800000227987766, -0.11200000531971455, 1.008000047877431, 0.0, 0.0, 0.0, 0.0, 0.0, 1.706217525205852E9, 0.0, 2024-01-25 13:18:45.205
88.0, 1848.585799348075, -5478.839368137065, 6214.995665565133, -11385.108162309974, -0.04800000227987766, -0.11200000531971455, 1.008000047877431, 0.0, 0.0, 0.0, 0.0, 0.0, 1.706217525210843E9, 0.0, 2024-01-25 13:18:45.210
88.0, 1655.4667153861374, -5654.65019510407, 6207.513995703775, -11189.242121830583, -0.04800000227987766, -0.11200000531971455, 1.008000047877431, 0.0, 0.0, 0.0, 0.0, 0.0, 1.706217525210843E9, 0.0, 2024-01-25 13:18:45.210
89.0, 1743.28517619567, -5658.031064664014, 6113.541529517155, -11213.772125639953, -0.04800000227987766, -0.11200000531971455, 1.008000047877431, 0.0, 0.0, 0.0, 0.0, 0.0, 1.706217525219939E9, 0.0, 2024-01-25 13:18:45.219
89.0, 1880.522675019689, -5454.361722927075, 6202.055611718446, -11037.041283283848, -0.04800000227987766, -0.11200000531971455, 1.008000047877431, 0.0, 0.0, 0.0, 0.0, 0.0, 1.706217525219939E9, 0.0, 2024-01-25 13:18:45.219
90.0, 1825.0468690269627, -5486.066724801436, 6315.980444168672, -11108.437843387946, -0.04800000227987766, -0.11200000531971455, 1.008000047877431, 0.0, 0.0, 0.0, 0.0, 0.0, 1.706217525228846E9, 0.0, 2024-01-25 13:18:45.228
90.0, 2069.3614434823394, -5295.509472309146, 6502.633241107222, -11094.781598699745, -0.04800000227987766, -0.11200000531971455, 1.008000047877431, 0.0, 0.0, 0.0, 0.0, 0.0, 1.706217525228846E9, 0.0, 2024-01-25 13:18:45.228
91.0, 2176.900396758225, -5184.623308572918, 6432.741990735289, -10903.573603615165, -0.04800000227987766, -0.11200000531971455, 1.008000047877431, 0.0, 0.0, 0.0, 0.0, 0.0, 1.706217525234836E9, 0.0, 2024-01-25 13:18:45.234
91.0, 1950.170831894502, -5389.362261697184, 6423.375411296263, -11061.073880399112, -0.04800000227987766, -0.11200000531971455, 1.008000047877431, 0.0, 0.0, 0.0, 0.0, 0.0, 1.706217525234836E9, 0.0, 2024-01-25 13:18:45.234
92.0, 1853.5636061890982, -5458.275528230704, 6355.389639951754, -11089.637366310693, -0.06400000303983688, -0.11200000531971455, 1.008000047877431, 0.0, 0.0, 0.0, 0.0, 0.0, 1.706217525244848E9, 0.0, 2024-01-25 13:18:45.244
92.0, 1795.022952182684, -5590.286516866647, 6129.409925029147, -11238.39188704826, -0.06400000303983688, -0.11200000531971455, 1.008000047877431, 0.0, 0.0, 0.0, 0.0, 0.0, 1.706217525244848E9, 0.0, 2024-01-25 13:18:45.244
93.0, 1865.4415284483694, -5465.688009942882, 6255.373495436739, -11395.248901039828, -0.06400000303983688, -0.11200000531971455, 1.008000047877431, 0.0, 0.0, 0.0, 0.0, 0.0, 1.706217525288842E9, 0.0, 2024-01-25 13:18:45.288
93.0, 1639.7217365726829, -5645.481830362696, 6199.411502449773, -11211.937704711687, -0.06400000303983688, -0.11200000531971455, 1.008000047877431, 0.0, 0.0, 0.0, 0.0, 0.0, 1.706217525288842E9, 0.0, 2024-01-25 13:18:45.288
94.0, 1739.2273847437464, -5641.167855763808, 6143.021290917881, -11197.073472337797, -0.06400000303983688, -0.11200000531971455, 1.008000047877431, 0.0, 0.0, 0.0, 0.0, 0.0, 1.70621752530446E9, 0.0, 2024-01-25 13:18:45.304
94.0, 1914.6604818152264, -5397.021576806437, 6220.712102647405, -11013.296658465173, -0.06400000303983688, -0.11200000531971455, 1.008000047877431, 0.0, 0.0, 0.0, 0.0, 0.0, 1.70621752530446E9, 0.0, 2024-01-25 13:18:45.304
95.0, 1852.8642448973842, -5465.302800247446, 6372.71285654651, -11047.974880804308, -0.06400000303983688, -0.11200000531971455, 1.008000047877431, 0.0, 0.0, 0.0, 0.0, 0.0, 1.706217525310463E9, 0.0, 2024-01-25 13:18:45.310
95.0, 2097.7959028454497, -5235.484078020323, 6572.395464930683, -11076.46917856671, -0.06400000303983688, -0.11200000531971455, 1.008000047877431, 0.0, 0.0, 0.0, 0.0, 0.0, 1.706217525310463E9, 0.0, 2024-01-25 13:18:45.310
96.0, 2194.3919088509865, -5161.525686446577, 6474.152032994665, -10852.099490575027, -0.06400000303983688, -0.11200000531971455, 1.008000047877431, 0.0, 0.0, 0.0, 0.0, 0.0, 1.706217525318835E9, 0.0, 2024-01-25 13:18:45.318
96.0, 2409.9634821969084, -5383.845909262542, 6416.690340125468, -10632.256951479707, -0.06400000303983688, -0.11200000531971455, 1.008000047877431, 0.0, 0.0, 0.0, 0.0, 0.0, 1.706217525318835E9, 0.0, 2024-01-25 13:18:45.318
97.0, 2358.302374158986, -5458.885131923482, 6382.980751874857, -10613.916482097004, -0.06400000303983688, -0.11200000531971455, 1.008000047877431, 0.0, 0.0, 0.0, 0.0, 0.0, 1.706217525324826E9, 0.0, 2024-01-25 13:18:45.324
97.0, 2314.03691828344, -5565.879929755814, 6163.0821142802015, -10781.400421812665, -0.06400000303983688, -0.11200000531971455, 1.008000047877431, 0.0, 0.0, 0.0, 0.0, 0.0, 1.706217525324826E9, 0.0, 2024-01-25 13:18:45.324
98.0, 2354.1323857083917, -5487.162515488453, 6236.956358104944, -10891.130956462584, -0.06400000303983688, -0.11200000531971455, 1.008000047877431, 0.0, 0.0, 0.0, 0.0, 0.0, 1.706217525330801E9, 0.0, 2024-01-25 13:18:45.330
98.0, 2154.681651121471, -5632.796089712996, 6251.792541229166, -10756.954565752298, -0.06400000303983688, -0.11200000531971455, 1.008000047877431, 0.0, 0.0, 0.0, 0.0, 0.0, 1.706217525330801E9, 0.0, 2024-01-25 13:18:45.330
99.0, 2230.891462468542, -5670.778513662983, 6143.346662214026, -10775.818621128798, -0.06400000303983688, -0.11200000531971455, 1.008000047877431, 0.0, 0.0, 0.0, 0.0, 0.0, 1.706217525338925E9, 0.0, 2024-01-25 13:18:45.338
99.0, 2384.434925099369, -5484.6867017177865, 6149.534326690715, -10571.580814598594, -0.06400000303983688, -0.11200000531971455, 1.008000047877431, 0.0, 0.0, 0.0, 0.0, 0.0, 1.706217525338925E9, 0.0, 2024-01-25 13:18:45.338
100.0, 2267.8641134304926, -5539.9605531129055, 6312.605184458662, -10617.018729110248, -0.06400000303983688, -0.11200000531971455, 1.0240000486373901, 0.0, 0.0, 0.0, 0.0, 0.0, 1.706217525345866E9, 0.0, 2024-01-25 13:18:45.345
100.0, 2064.8586039356887, -5295.2271098624915, 6533.272371494211, -10666.325570126064, -0.06400000303983688, -0.11200000531971455, 1.0240000486373901, 0.0, 0.0, 0.0, 0.0, 0.0, 1.706217525345866E9, 0.0, 2024-01-25 13:18:45.345
0.0, -1749.9721173164435, -1780.9291391996667, -1933.4329096428119, -2094.1326708388515, -0.06400000303983688, -0.11200000531971455, 1.0240000486373901, 0.0, 0.0, 0.0, 0.0, 0.0, 1.706217525352833E9, 0.0, 2024-01-25 13:18:45.352
1.0, -1508.307261979673, -1989.441651379224, -1942.9677845798433, -1875.913248324301, -0.06400000303983688, -0.11200000531971455, 1.0240000486373901, 0.0, 0.0, 0.0, 0.0, 0.0, 1.706217525357834E9, 0.0, 2024-01-25 13:18:45.357
1.0, -1553.606800192967, -2046.0693465583026, -1976.295903034974, -1849.2103626406752, -0.06400000303983688, -0.11200000531971455, 1.0240000486373901, 0.0, 0.0, 0.0, 0.0, 0.0, 1.706217525357834E9, 0.0, 2024-01-25 13:18:45.357
2.0, -1636.7260767081752, -2181.22559105698, -1748.1825751876459, -1983.8505009454675, -0.06400000303983688, -0.11200000531971455, 1.0240000486373901, 0.0, 0.0, 0.0, 0.0, 0.0, 1.706217525363831E9, 0.0, 2024-01-25 13:18:45.363
2.0, -1633.4499243469909, -2100.1034211181104, -1653.5556265087798, -2065.7075612256303, -0.06400000303983688, -0.11200000531971455, 1.0240000486373901, 0.0, 0.0, 0.0, 0.0, 0.0, 1.706217525363831E9, 0.0, 2024-01-25 13:18:45.363
3.0, -1778.2382811815478, -2224.6289999927394, -1668.292702284176, -1946.5618284372613, -0.06400000303983688, -0.11200000531971455, 1.0240000486373901, 0.0, 0.0, 0.0, 0.0, 0.0, 1.706217525370967E9, 0.0, 2024-01-25 13:18:45.370
3.0, -1736.5402666255832, -2231.76098920824, -1762.1679310719483, -1895.861874687951, -0.06400000303983688, -0.11200000531971455, 1.0240000486373901, 0.0, 0.0, 0.0, 0.0, 0.0, 1.706217525370967E9, 0.0, 2024-01-25 13:18:45.370
4.0, -1559.6037297719158, -2061.840504671447, -1689.2267922861502, -1777.028423545882, -0.06400000303983688, -0.11200000531971455, 1.0240000486373901, 0.0, 0.0, 0.0, 0.0, 0.0, 1.706217525378822E9, 0.0, 2024-01-25 13:18:45.378
4.0, -1658.9822213444859, -2105.281312606763, -1561.602706298232, -1790.1610822402872, -0.06400000303983688, -0.11200000531971455, 1.0240000486373901, 0.0, 0.0, 0.0, 0.0, 0.0, 1.706217525378822E9, 0.0, 2024-01-25 13:18:45.378
5.0, -1850.2519247783348, -1877.411078256555, -1332.1467543668114, -1845.8407127805986, -0.06400000303983688, -0.11200000531971455, 1.0240000486373901, 0.0, 0.0, 0.0, 0.0, 0.0, 1.706217525383285E9, 0.0, 2024-01-25 13:18:45.383
5.0, -1728.7182658682577, -1785.6208436940797, -1416.911586862523, -2060.0734019423835, -0.06400000303983688, -0.11200000531971455, 1.0240000486373901, 0.0, 0.0, 0.0, 0.0, 0.0, 1.706217525383285E9, 0.0, 2024-01-25 13:18:45.383
6.0, -1516.44902418321, -2002.0881230793893, -1453.9085471741855, -1867.4797739242204, -0.06400000303983688, -0.11200000531971455, 1.0240000486373901, 0.0, 0.0, 0.0, 0.0, 0.0, 1.706217525389815E9, 0.0, 2024-01-25 13:18:45.389
6.0, -1549.1264000460505, -2032.050331574399, -1489.1701939064078, -1798.4636601419188, -0.06400000303983688, -0.11200000531971455, 1.0240000486373901, 0.0, 0.0, 0.0, 0.0, 0.0, 1.706217525389815E9, 0.0, 2024-01-25 13:18:45.389
7.0, -1609.4210671316832, -2148.5519550940953, -1246.762968428433, -1947.6407895744778, -0.06400000303983688, -0.11200000531971455, 1.0240000486373901, 0.0, 0.0, 0.0, 0.0, 0.0, 1.70621752542447E9, 0.0, 2024-01-25 13:18:45.424
7.0, -1619.8123791585676, -2100.4044830645435, -1149.4021528819576, -2114.0233287531883, -0.06400000303983688, -0.11200000531971455, 1.0240000486373901, 0.0, 0.0, 0.0, 0.0, 0.0, 1.70621752542447E9, 0.0, 2024-01-25 13:18:45.424
8.0, -1805.1823904123157, -2232.2490461524576, -1167.3742421190254, -1962.8154336446896, -0.06400000303983688, -0.11200000531971455, 1.0240000486373901, 0.0, 0.0, 0.0, 0.0, 0.0, 1.706217525430184E9, 0.0, 2024-01-25 13:18:45.430
8.0, -1738.2437910554, -2232.209777202923, -1253.9080472937785, -1930.3287926795892, -0.06400000303983688, -0.11200000531971455, 1.0240000486373901, 0.0, 0.0, 0.0, 0.0, 0.0, 1.706217525430184E9, 0.0, 2024-01-25 13:18:45.430
9.0, -1542.8433681204915, -2102.2389039928094, -1189.897789602168, -1787.9975501159206, -0.06400000303983688, -0.11200000531971455, 1.0240000486373901, 0.0, 0.0, 0.0, 0.0, 0.0, 1.706217525435834E9, 0.0, 2024-01-25 13:18:45.435
9.0, -1623.4101629159413, -2092.0813357131556, -1046.0313181066886, -1818.674079502467, -0.06400000303983688, -0.11200000531971455, 1.0240000486373901, 0.0, 0.0, 0.0, 0.0, 0.0, 1.706217525435834E9, 0.0, 2024-01-25 13:18:45.435
10.0, -1824.246530436445, -2328.8544019078836, -823.580198792275, -1806.8541256925091, -0.06400000303983688, -0.11200000531971455, 1.0240000486373901, 0.0, 0.0, 0.0, 0.0, 0.0, 1.706217525442847E9, 0.0, 2024-01-25 13:18:45.442
10.0, -1736.312132728286, -2252.4014970636927, -936.8954275497235, -1561.929947544355, -0.06400000303983688, -0.11200000531971455, 1.0240000486373901, 0.0, 0.0, 0.0, 0.0, 0.0, 1.706217525442847E9, 0.0, 2024-01-25 13:18:45.442
11.0, -1526.7094397116452, -2487.8525086240843, -981.5180438710377, -1348.56491517229, -0.06400000303983688, -0.11200000531971455, 1.0240000486373901, 0.0, 0.0, 0.0, 0.0, 0.0, 1.706217525455826E9, 0.0, 2024-01-25 13:18:45.455
11.0, -1574.208039098885, -2525.892901023384, -962.9681400908157, -1337.3639148049988, -0.06400000303983688, -0.11200000531971455, 1.0240000486373901, 0.0, 0.0, 0.0, 0.0, 0.0, 1.706217525455826E9, 0.0, 2024-01-25 13:18:45.455
12.0, -1652.6150416699238, -2673.2337395776995, -755.7533731958829, -1483.3583893752657, -0.06400000303983688, -0.11200000531971455, 1.0240000486373901, 0.0, 0.0, 0.0, 0.0, 0.0, 1.706217525462443E9, 0.0, 2024-01-25 13:18:45.462
12.0, -1598.7530025080778, -2584.957141023595, -679.2537196022458, -1641.457050152123, -0.06400000303983688, -0.11200000531971455, 1.0240000486373901, 0.0, 0.0, 0.0, 0.0, 0.0, 1.706217525462443E9, 0.0, 2024-01-25 13:18:45.462
13.0, -1787.245830224827, -2723.484905332327, -679.0218458049931, -1423.5966580333188, -0.06400000303983688, -0.11200000531971455, 1.0240000486373901, 0.0, 0.0, 0.0, 0.0, 0.0, 1.706217525468825E9, 0.0, 2024-01-25 13:18:45.468
13.0, -1694.692656071391, -2703.983197013382, -743.5538195404224, -1409.7047996479087, -0.06400000303983688, -0.11200000531971455, 1.0240000486373901, 0.0, 0.0, 0.0, 0.0, 0.0, 1.706217525468825E9, 0.0, 2024-01-25 13:18:45.468
14.0, -1531.69472635258, -2527.147637458518, -719.1715417793021, -1272.452341224067, -0.06400000303983688, -0.11200000531971455, 1.0240000486373901, 0.0, 0.0, 0.0, 0.0, 0.0, 1.706217525476523E9, 0.0, 2024-01-25 13:18:45.476
14.0, -1648.6657073167153, -2583.3078451431356, -536.2754743462428, -1334.6375277373008, -0.06400000303983688, -0.11200000531971455, 1.0240000486373901, 0.0, 0.0, 0.0, 0.0, 0.0, 1.706217525476523E9, 0.0, 2024-01-25 13:18:45.476
15.0, -1828.154725890141, -2810.9144165464677, -299.3771215029992, -1308.3366812989116, -0.06400000303983688, -0.11200000531971455, 1.0240000486373901, 0.0, 0.0, 0.0, 0.0, 0.0, 1.706217525512274E9, 0.0, 2024-01-25 13:18:45.512
15.0, -1719.4601435279474, -2729.779156957753, -390.66059962147847, -1548.3634604550898, -0.06400000303983688, -0.11200000531971455, 1.0240000486373901, 0.0, 0.0, 0.0, 0.0, 0.0, 1.706217525512274E9, 0.0, 2024-01-25 13:18:45.512
16.0, -1529.390947979875, -2490.979064987041, -475.3300646683201, -1348.2301941262558, -0.06400000303983688, -0.11200000531971455, 1.0240000486373901, 0.0, 0.0, 0.0, 0.0, 0.0, 1.706217525530807E9, 0.0, 2024-01-25 13:18:45.530
16.0, -1567.741752075497, -2468.5321854529902, -440.08150758594275, -1317.473256890662, -0.06400000303983688, -0.11200000531971455, 1.0240000486373901, 0.0, 0.0, 0.0, 0.0, 0.0, 1.706217525530807E9, 0.0, 2024-01-25 13:18:45.530
17.0, -1641.2494857045822, -2636.214339866303, -247.05592112289742, -1465.951025031507, -0.06400000303983688, -0.11200000531971455, 1.0240000486373901, 0.0, 0.0, 0.0, 0.0, 0.0, 1.706217525535804E9, 0.0, 2024-01-25 13:18:45.535
17.0, -1620.665076348465, -2558.7759713837877, -164.99503629514948, -1625.452148291748, -0.06400000303983688, -0.11200000531971455, 1.0240000486373901, 0.0, 0.0, 0.0, 0.0, 0.0, 1.706217525535804E9, 0.0, 2024-01-25 13:18:45.535
18.0, -1762.0763035230339, -2727.8100996310823, -197.11142716463655, -1460.9414290408604, -0.06400000303983688, -0.11200000531971455, 1.0240000486373901, 0.0, 0.0, 0.0, 0.0, 0.0, 1.706217525542931E9, 0.0, 2024-01-25 13:18:45.542
18.0, -1685.0698934854008, -2708.8020581062883, -235.1162905143574, -1390.9772506197914, -0.06400000303983688, -0.11200000531971455, 1.0240000486373901, 0.0, 0.0, 0.0, 0.0, 0.0, 1.706217525542931E9, 0.0, 2024-01-25 13:18:45.542
19.0, -1550.6223600283265, -2524.54279713938, -184.31161956628785, -1219.7328414986841, -0.06400000303983688, -0.11200000531971455, 1.0240000486373901, 0.0, 0.0, 0.0, 0.0, 0.0, 1.706217525548821E9, 0.0, 2024-01-25 13:18:45.548
19.0, -1627.8905630628578, -2580.5459290258586, -47.40510188834742, -1340.110871322453, -0.06400000303983688, -0.11200000531971455, 1.0240000486373901, 0.0, 0.0, 0.0, 0.0, 0.0, 1.706217525548821E9, 0.0, 2024-01-25 13:18:45.548
20.0, -1807.989185329061, -2792.8600495103747, -243.62269296357408, -1288.8873315793462, -0.06400000303983688, -0.11200000531971455, 1.0240000486373901, 0.0, 0.0, 0.0, 0.0, 0.0, 1.706217525555825E9, 0.0, 2024-01-25 13:18:45.555
20.0, -1693.535157035105, -2711.0216887299903, -391.00467041740194, -1079.361306511797, -0.06400000303983688, -0.11200000531971455, 1.0240000486373901, 0.0, 0.0, 0.0, 0.0, 0.0, 1.706217525555825E9, 0.0, 2024-01-25 13:18:45.555
21.0, -1511.9106555869803, -2473.998049238231, -453.5414075264707, -869.0031537041068, -0.06400000303983688, -0.11200000531971455, 1.0240000486373901, 0.0, 0.0, 0.0, 0.0, 0.0, 1.706217525575808E9, 0.0, 2024-01-25 13:18:45.575
21.0, -1545.863337334711, -2505.5048364149407, -437.1793452203274, -785.9212761884555, -0.06400000303983688, -0.11200000531971455, 1.0240000486373901, 0.0, 0.0, 0.0, 0.0, 0.0, 1.706217525575808E9, 0.0, 2024-01-25 13:18:45.575
22.0, -1593.8799128658138, -2612.4958943473175, -195.84547102963552, -947.5560123734176, -0.06400000303983688, -0.11200000531971455, 1.0240000486373901, 0.0, 0.0, 0.0, 0.0, 0.0, 1.70621752558481E9, 0.0, 2024-01-25 13:18:45.584
22.0, -1608.8713018381968, -2571.375694334507, -201.3524737143889, -1089.9433534364216, -0.06400000303983688, -0.11200000531971455, 1.0240000486373901, 0.0, 0.0, 0.0, 0.0, 0.0, 1.70621752558481E9, 0.0, 2024-01-25 13:18:45.584
23.0, -1789.8207513443194, -2724.4404497710057, -181.37018825113773, -933.6379746883176, -0.06400000303983688, -0.11200000531971455, 1.0240000486373901, 0.0, 0.0, 0.0, 0.0, 0.0, 1.706217525591171E9, 0.0, 2024-01-25 13:18:45.591
23.0, -1671.2677926989272, -2716.3753555165604, -239.21522086579353, -912.0194829944521, -0.06400000303983688, -0.11200000531971455, 1.0240000486373901, 0.0, 0.0, 0.0, 0.0, 0.0, 1.706217525591171E9, 0.0, 2024-01-25 13:18:45.591
24.0, -1597.144845527131, -2597.9121544701047, -256.7964905574918, -819.6757432385348, -0.06400000303983688, -0.11200000531971455, 1.0240000486373901, 0.0, 0.0, 0.0, 0.0, 0.0, 1.706217525597136E9, 0.0, 2024-01-25 13:18:45.597
24.0, -1675.23956645187, -2645.0928623611107, -97.88440154027194, -835.4712107013911, -0.06400000303983688, -0.11200000531971455, 1.0240000486373901, 0.0, 0.0, 0.0, 0.0, 0.0, 1.706217525597136E9, 0.0, 2024-01-25 13:18:45.597
25.0, -1820.7179348282516, -2819.705051392317, -322.3008382814005, -875.0281325327232, -0.06400000303983688, -0.11200000531971455, 1.0240000486373901, 0.0, 0.0, 0.0, 0.0, 0.0, 1.706217525603279E9, 0.0, 2024-01-25 13:18:45.603
25.0, -1767.0410207142122, -2781.7431968920864, -446.9105649050325, -1106.0941113950685, -0.06400000303983688, -0.11200000531971455, 1.0240000486373901, 0.0, 0.0, 0.0, 0.0, 0.0, 1.706217525603279E9, 0.0, 2024-01-25 13:18:45.603
26.0, -1597.556234522257, -2998.9060976691544, -543.1512804147787, -930.9658161699772, -0.06400000303983688, -0.11200000531971455, 1.0240000486373901, 0.0, 0.0, 0.0, 0.0, 0.0, 1.706217525620141E9, 0.0, 2024-01-25 13:18:45.620
26.0, -1584.5600821762346, -3008.1043816101737, -504.3423385745846, -883.9328343272209, -0.06400000303983688, -0.11200000531971455, 1.0240000486373901, 0.0, 0.0, 0.0, 0.0, 0.0, 1.706217525620141E9, 0.0, 2024-01-25 13:18:45.620
27.0, -1607.6539644026197, -3159.918140511494, -321.76977248769253, -1034.1122569479048, -0.06400000303983688, -0.11200000531971455, 1.0240000486373901, 0.0, 0.0, 0.0, 0.0, 0.0, 1.70621752562593E9, 0.0, 2024-01-25 13:18:45.625
27.0, -1648.1664306726307, -3106.695624242071, -255.3117502750829, -1141.6025915243663, -0.06400000303983688, -0.11200000531971455, 1.0240000486373901, 0.0, 0.0, 0.0, 0.0, 0.0, 1.70621752562593E9, 0.0, 2024-01-25 13:18:45.625
28.0, -1820.5402895803563, -3220.510129643604, -251.22403962351382, -950.4787441887893, -0.06400000303983688, -0.11200000531971455, 1.0240000486373901, 0.0, 0.0, 0.0, 0.0, 0.0, 1.706217525634923E9, 0.0, 2024-01-25 13:18:45.634
28.0, -1699.9453455591574, -3194.138225106057, -252.07673681341112, -917.4348581302911, -0.06400000303983688, -0.11200000531971455, 1.0240000486373901, 0.0, 0.0, 0.0, 0.0, 0.0, 1.706217525634923E9, 0.0, 2024-01-25 13:18:45.634
29.0, -1601.2998743779026, -3063.3931926051155, -287.81896068993956, -845.9522803272121, -0.06400000303983688, -0.11200000531971455, 1.0240000486373901, 0.0, 0.0, 0.0, 0.0, 0.0, 1.706217525642802E9, 0.0, 2024-01-25 13:18:45.642
29.0, -1622.5443760761991, -3077.7600182848983, -530.6637544627301, -877.3655700050294, -0.06400000303983688, -0.11200000531971455, 1.0240000486373901, 0.0, 0.0, 0.0, 0.0, 0.0, 1.706217525642802E9, 0.0, 2024-01-25 13:18:45.642
30.0, -1819.8016593391076, -3312.053530809004, -774.3182365759276, -855.3020302164368, -0.06400000303983688, -0.11200000531971455, 1.0240000486373901, 0.0, 0.0, 0.0, 0.0, 0.0, 1.706217525650818E9, 0.0, 2024-01-25 13:18:45.650
30.0, -1726.7585582914762, -3241.7939002914354, -921.4122417331673, -1075.320344609674, -0.06400000303983688, -0.11200000531971455, 1.0240000486373901, 0.0, 0.0, 0.0, 0.0, 0.0, 1.706217525650818E9, 0.0, 2024-01-25 13:18:45.650
31.0, -1565.4043146031909, -3482.0619029947557, -1012.6714105019346, -845.2865781350993, -0.06400000303983688, -0.11200000531971455, 1.0240000486373901, 0.0, 0.0, 0.0, 0.0, 0.0, 1.706217525664808E9, 0.0, 2024-01-25 13:18:45.664
31.0, -1554.8091780287214, -3469.8324301396497, -954.42620859202, -783.9634385616519, -0.06400000303983688, -0.11200000531971455, 1.0240000486373901, 0.0, 0.0, 0.0, 0.0, 0.0, 1.706217525664808E9, 0.0, 2024-01-25 13:18:45.664
32.0, -1604.6770040378906, -3615.894222909119, -717.2735425517894, -985.1737960777245, -0.06400000303983688, -0.11200000531971455, 1.0240000486373901, 0.0, 0.0, 0.0, 0.0, 0.0, 1.706217525670602E9, 0.0, 2024-01-25 13:18:45.670
32.0, -1604.2431756430306, -3555.6593942227773, -669.3392448197119, -1159.541021661833, -0.06400000303983688, -0.11200000531971455, 1.0240000486373901, 0.0, 0.0, 0.0, 0.0, 0.0, 1.706217525670602E9, 0.0, 2024-01-25 13:18:45.670
33.0, -1776.848908348009, -3664.439994283952, -666.2014687568881, -943.2850466240197, -0.06400000303983688, -0.11200000531971455, 1.0240000486373901, 0.0, 0.0, 0.0, 0.0, 0.0, 1.706217525674901E9, 0.0, 2024-01-25 13:18:45.674
33.0, -1675.0469616041519, -3686.015477128327, -731.3505259850062, -924.9464471912943, -0.06400000303983688, -0.11200000531971455, 1.0240000486373901, 0.0, 0.0, 0.0, 0.0, 0.0, 1.706217525674901E9, 0.0, 2024-01-25 13:18:45.674
34.0, -1575.8442453294992, -3542.33787058061, -704.5111339529976, -812.6877401713282, -0.06400000303983688, -0.11200000531971455, 1.0240000486373901, 0.0, 0.0, 0.0, 0.0, 0.0, 1.706217525681814E9, 0.0, 2024-01-25 13:18:45.681
34.0, -1675.2563960016705, -3601.9612256241962, -552.1887486577034, -871.2826227270998, -0.06400000303983688, -0.11200000531971455, 1.0240000486373901, 0.0, 0.0, 0.0, 0.0, 0.0, 1.706217525681814E9, 0.0, 2024-01-25 13:18:45.681
35.0, -1810.6220748978667, -3791.1739840824157, -783.9054701123387, -772.9849622417241, -0.06400000303983688, -0.11200000531971455, 1.0240000486373901, 0.0, 0.0, 0.0, 0.0, 0.0, 1.706217525688813E9, 0.0, 2024-01-25 13:18:45.688
35.0, -1734.6628368478268, -3734.628566702362, -903.0138039011508, -619.0675096153282, -0.06400000303983688, -0.11200000531971455, 1.0240000486373901, 0.0, 0.0, 0.0, 0.0, 0.0, 1.706217525688813E9, 0.0, 2024-01-25 13:18:45.688
36.0, -1555.6674850685522, -3501.1166932689957, -1014.5768895293586, -398.96691742306575, -0.06400000303983688, -0.11200000531971455, 1.0240000486373901, 0.0, 0.0, 0.0, 0.0, 0.0, 1.706217525694178E9, 0.0, 2024-01-25 13:18:45.694
36.0, -1575.569362682756, -3506.0253119608387, -966.1152659035288, -272.7303343187086, -0.06400000303983688, -0.11200000531971455, 1.0240000486373901, 0.0, 0.0, 0.0, 0.0, 0.0, 1.706217525694178E9, 0.0, 2024-01-25 13:18:45.694
37.0, -1575.6815596814267, -3612.866773894988, -731.8385829292238, -456.14998774556443, -0.06400000303983688, -0.11200000531971455, 1.0240000486373901, 0.0, 0.0, 0.0, 0.0, 0.0, 1.706217525700805E9, 0.0, 2024-01-25 13:18:45.700
37.0, -1622.738850873895, -3588.6284822821617, -675.1678789006546, -629.3952433429658, -0.06400000303983688, -0.11200000531971455, 1.0240000486373901, 0.0, 0.0, 0.0, 0.0, 0.0, 1.706217525700805E9, 0.0, 2024-01-25 13:18:45.700
38.0, -1775.5193739137612, -3702.996492877137, -670.9043929511681, -445.2575291246176, -0.06400000303983688, -0.11200000531971455, 1.0240000486373901, 0.0, 0.0, 0.0, 0.0, 0.0, 1.706217525737432E9, 0.0, 2024-01-25 13:18:45.737
38.0, -1659.270193641074, -3684.3699211478233, -698.8601451199502, -377.0211844830774, -0.06400000303983688, -0.11200000531971455, 1.0240000486373901, 0.0, 0.0, 0.0, 0.0, 0.0, 1.706217525737432E9, 0.0, 2024-01-25 13:18:45.737
39.0, -1593.9659305647947, -3550.801264180336, -706.1679096333683, -345.22268510982394, -0.06400000303983688, -0.11200000531971455, 1.0240000486373901, 0.0, 0.0, 0.0, 0.0, 0.0, 1.706217525742817E9, 0.0, 2024-01-25 13:18:45.742
39.0, -1654.120351402089, -3561.9068970987573, -546.332065327093, -331.3775754738599, -0.06400000303983688, -0.11200000531971455, 1.0240000486373901, 0.0, 0.0, 0.0, 0.0, 0.0, 1.706217525742817E9, 0.0, 2024-01-25 13:18:45.742
40.0, -1820.1756493346766, -3763.842795206234, -772.7418687446043, -312.0254631531425, -0.06400000303983688, -0.11200000531971455, 1.0240000486373901, 0.0, 0.0, 0.0, 0.0, 0.0, 1.70621752576928E9, 0.0, 2024-01-25 13:18:45.769
40.0, -1696.1063382546417, -3714.635061539244, -880.9184749629349, -108.6814927123487, -0.06400000303983688, -0.11200000531971455, 1.0240000486373901, 0.0, 0.0, 0.0, 0.0, 0.0, 1.70621752576928E9, 0.0, 2024-01-25 13:18:45.769
41.0, -1530.4474697173573, -3481.9422261961736, -1004.7746117454953, 69.82767207268625, -0.06400000303983688, -0.11200000531971455, 1.0240000486373901, 0.0, 0.0, 0.0, 0.0, 0.0, 1.706217525773468E9, 0.0, 2024-01-25 13:18:45.773
41.0, -1529.1609441326, -3471.4966856199317, -933.9820454842411, 177.90704089216888, -0.06400000303983688, -0.11200000531971455, 1.0240000486373901, 0.0, 0.0, 0.0, 0.0, 0.0, 1.706217525773468E9, 0.0, 2024-01-25 13:18:45.773
42.0, -1585.4165192660876, -3611.8738304567523, -715.1997680263594, 67.01526730600744, -0.06400000303983688, -0.11200000531971455, 1.0240000486373901, 0.0, 0.0, 0.0, 0.0, 0.0, 1.706217525779157E9, 0.0, 2024-01-25 13:18:45.779
42.0, -1661.0055072205141, -3564.1938459216617, -687.9321574494243, -129.51086551556364, -0.06400000303983688, -0.11200000531971455, 1.0240000486373901, 0.0, 0.0, 0.0, 0.0, 0.0, 1.706217525779157E9, 0.0, 2024-01-25 13:18:45.779
43.0, -1783.8967498145066, -3702.153145437129, -681.940837720409, 76.80819533998147, -0.06400000303983688, -0.11200000531971455, 1.0240000486373901, 0.0, 0.0, 0.0, 0.0, 0.0, 1.70621752578592E9, 0.0, 2024-01-25 13:18:45.785
43.0, -1636.4568039113656, -3653.8878665589727, -672.6864552800544, 143.49622139986604, -0.06400000303983688, -0.11200000531971455, 1.0240000486373901, 0.0, 0.0, 0.0, 0.0, 0.0, 1.70621752578592E9, 0.0, 2024-01-25 13:18:45.785
44.0, -1573.4264000081457, -3531.3444346608594, -700.6010685493238, 180.64651760971174, -0.06400000303983688, -0.11200000531971455, 1.0240000486373901, 0.0, 0.0, 0.0, 0.0, 0.0, 1.706217525790464E9, 0.0, 2024-01-25 13:18:45.790
44.0, -1662.213494906202, -3563.1317143342458, -534.8337429133244, 157.8948362292722, -0.06400000303983688, -0.11200000531971455, 1.0240000486373901, 0.0, 0.0, 0.0, 0.0, 0.0, 1.706217525790464E9, 0.0, 2024-01-25 13:18:45.790
45.0, -1781.1946720965207, -3751.1215255069546, -700.1485406546853, 228.9061866379343, -0.06400000303983688, -0.11200000531971455, 1.0240000486373901, 0.0, 0.0, 0.0, 0.0, 0.0, 1.706217525797823E9, 0.0, 2024-01-25 13:18:45.797
45.0, -1701.1851223944686, -3693.5214563393965, -886.9378439416178, 415.70483967475593, -0.06400000303983688, -0.11200000531971455, 1.0240000486373901, 0.0, 0.0, 0.0, 0.0, 0.0, 1.706217525797823E9, 0.0, 2024-01-25 13:18:45.797
46.0, -1553.1561422483064, -3475.9714759169146, -1008.5687402505428, 634.627363380976, -0.06400000303983688, -0.11200000531971455, 1.0240000486373901, 0.0, 0.0, 0.0, 0.0, 0.0, 1.706217525804798E9, 0.0, 2024-01-25 13:18:45.804
46.0, -1530.439989917446, -3450.8991866139695, -916.1258931457996, 677.8606068687513, -0.06400000303983688, -0.11200000531971455, 1.0240000486373901, 0.0, 0.0, 0.0, 0.0, 0.0, 1.706217525804798E9, 0.0, 2024-01-25 13:18:45.804
47.0, -1580.068462329451, -3594.3019105149433, -692.156374449376, 569.3399298544973, -0.06400000303983688, -0.11200000531971455, 1.0240000486373901, 0.0, 0.0, 0.0, 0.0, 0.0, 1.706217525810805E9, 0.0, 2024-01-25 13:18:45.810
47.0, -1644.1796973198652, -3592.798470732756, -679.2611994021572, 803.8204373763874, -0.06400000303983688, -0.11200000531971455, 1.0240000486373901, 0.0, 0.0, 0.0, 0.0, 0.0, 1.706217525810805E9, 0.0, 2024-01-25 13:18:45.810
48.0, -1773.593325436581, -3671.6935302480124, -618.3344892240129, 1034.2992519456893, -0.06400000303983688, -0.11200000531971455, 1.0240000486373901, 0.0, 0.0, 0.0, 0.0, 0.0, 1.706217525816935E9, 0.0, 2024-01-25 13:18:45.816
48.0, -1600.7370194345713, -3608.113361051306, -628.6266939020716, 1122.1663314546458, -0.06400000303983688, -0.11200000531971455, 1.0240000486373901, 0.0, 0.0, 0.0, 0.0, 0.0, 1.706217525816935E9, 0.0, 2024-01-25 13:18:45.816
49.0, -1544.1055843555368, -3516.139871391002, -702.2840235293843, 1194.2884321501479, -0.06400000303983688, -0.11200000531971455, 1.0240000486373901, 0.0, 0.0, 0.0, 0.0, 0.0, 1.706217525844806E9, 0.0, 2024-01-25 13:18:45.844
49.0, -1612.5999820940197, -3538.872853271663, -560.7026309068315, 1086.5998828760348, -0.06400000303983688, -0.11200000531971455, 1.0240000486373901, 0.0, 0.0, 0.0, 0.0, 0.0, 1.706217525844806E9, 0.0, 2024-01-25 13:18:45.844
50.0, -1784.4184658583254, -3746.4784397119656, -775.6421611602418, 1165.629578789696, -0.06400000303983688, -0.11200000531971455, 1.0240000486373901, 0.0, 0.0, 0.0, 0.0, 0.0, 1.706217525851807E9, 0.0, 2024-01-25 13:18:45.851
50.0, -1705.0297395489179, -3704.8440034552477, -877.5693945526145, 1372.2983202910982, -0.06400000303983688, -0.11200000531971455, 1.0240000486373901, 0.0, 0.0, 0.0, 0.0, 0.0, 1.706217525851807E9, 0.0, 2024-01-25 13:18:45.851
51.0, -1559.2559190760367, -3475.6928533702157, -1013.0753196971491, 1571.8107632272877, -0.06400000303983688, -0.11200000531971455, 1.0240000486373901, 0.0, 0.0, 0.0, 0.0, 0.0, 1.706217525855796E9, 0.0, 2024-01-25 13:18:45.855
51.0, -1531.6554574030451, -3460.168528654147, -941.871364440769, 1651.3771347845905, -0.06400000303983688, -0.11200000531971455, 1.0240000486373901, 0.0, 0.0, 0.0, 0.0, 0.0, 1.706217525855796E9, 0.0, 2024-01-25 13:18:45.855
52.0, -1591.7219905913807, -3590.3694057115354, -725.0749738593586, 1527.2610749551095, -0.06400000303983688, -0.11200000531971455, 1.0240000486373901, 0.0, 0.0, 0.0, 0.0, 0.0, 1.706217525862569E9, 0.0, 2024-01-25 13:18:45.862
52.0, -1651.1807900369167, -3600.192252945155, -719.195851129014, 1286.8659156532958, -0.06400000303983688, -0.11200000531971455, 1.0240000486373901, 0.0, 0.0, 0.0, 0.0, 0.0, 1.706217525862569E9, 0.0, 2024-01-25 13:18:45.862
53.0, -1769.5467536845244, -3662.568174356129, -669.253227120731, 1507.6995282368734, -0.06400000303983688, -0.11200000531971455, 1.0240000486373901, 0.0, 0.0, 0.0, 0.0, 0.0, 1.706217525868783E9, 0.0, 2024-01-25 13:18:45.868
53.0, -1661.5515326140448, -3647.1130377892405, -716.4956433610059, 1575.8274157796986, -0.06400000303983688, -0.11200000531971455, 1.0240000486373901, 0.0, 0.0, 0.0, 0.0, 0.0, 1.706217525868783E9, 0.0, 2024-01-25 13:18:45.868
54.0, -1560.542444660794, -3541.5562314898707, -741.9344428596087, 1660.754933923483, -0.06400000303983688, -0.11200000531971455, 1.0240000486373901, 0.0, 0.0, 0.0, 0.0, 0.0, 1.706217525873414E9, 0.0, 2024-01-25 13:18:45.873
54.0, -1664.5733717782423, -3585.8908755145967, -571.4511033794843, 1609.628631579224, -0.06400000303983688, -0.11200000531971455, 1.0240000486373901, 0.0, 0.0, 0.0, 0.0, 0.0, 1.706217525873414E9, 0.0, 2024-01-25 13:18:45.873
55.0, -1800.559874067083, -3779.1913446243852, -780.0440234080888, 1699.4853378646076, -0.06400000303983688, -0.11200000531971455, 1.0240000486373901, 0.0, 0.0, 0.0, 0.0, 0.0, 1.70621752588716E9, 0.0, 2024-01-25 13:18:45.887
55.0, -1709.5587583952583, -3715.4840188291855, -898.7035692022182, 1862.0718785882927, -0.06400000303983688, -0.11200000531971455, 1.0240000486373901, 0.0, 0.0, 0.0, 0.0, 0.0, 1.70621752588716E9, 0.0, 2024-01-25 13:18:45.887
56.0, -1570.0530102481134, -3489.8932535019703, -1007.962876457721, 2068.7312703398056, -0.06400000303983688, -0.11200000531971455, 1.0240000486373901, 0.0, 0.0, 0.0, 0.0, 0.0, 1.706217525903828E9, 0.0, 2024-01-25 13:18:45.903
56.0, -1545.781059535686, -3455.295439011883, -927.977636105381, 2182.1250369963236, -0.06400000303983688, -0.11200000531971455, 1.0240000486373901, 0.0, 0.0, 0.0, 0.0, 0.0, 1.706217525903828E9, 0.0, 2024-01-25 13:18:45.903
57.0, -1603.3605592534877, -3588.660271431785, -708.6343736541457, 2039.2907778886147, -0.06400000303983688, -0.11200000531971455, 1.0240000486373901, 0.0, 0.0, 0.0, 0.0, 0.0, 1.706217525908794E9, 0.0, 2024-01-25 13:18:45.908
57.0, -1669.992486814037, -3599.9790786476806, -702.6692332248203, 1798.4991891914979, -0.06400000303983688, -0.11200000531971455, 1.0240000486373901, 0.0, 0.0, 0.0, 0.0, 0.0, 1.706217525908794E9, 0.0, 2024-01-25 13:18:45.908
58.0, -1789.4056224492379, -3697.3193247443996, -675.730733843986, 2026.1992580937222, -0.06400000303983688, -0.11200000531971455, 1.0240000486373901, 0.0, 0.0, 0.0, 0.0, 0.0, 1.706217525914044E9, 0.0, 2024-01-25 13:18:45.914
58.0, -1656.001521079801, -3667.985419441946, -688.9438003874384, 2116.2728785765357, -0.06400000303983688, -0.11200000531971455, 1.0240000486373901, 0.0, 0.0, 0.0, 0.0, 0.0, 1.706217525914044E9, 0.0, 2024-01-25 13:18:45.914
59.0, -1572.6073619178496, -3518.5446270625107, -699.393080863636, 2146.39590276964, -0.06400000303983688, -0.11200000531971455, 1.0240000486373901, 0.0, 0.0, 0.0, 0.0, 0.0, 1.706217525919137E9, 0.0, 2024-01-25 13:18:45.919
59.0, -1654.0979120023549, -3574.9516681442037, -540.5370903457515, 2081.136518492829, -0.06400000303983688, -0.11200000531971455, 1.0240000486373901, 0.0, 0.0, 0.0, 0.0, 0.0, 1.706217525919137E9, 0.0, 2024-01-25 13:18:45.919
60.0, -1778.767477025278, -3749.1225489806384, -725.7182366517372, 2212.7118087839335, -0.06400000303983688, -0.11200000531971455, 1.0240000486373901, 0.0, 0.0, 0.0, 0.0, 0.0, 1.706217525923809E9, 0.0, 2024-01-25 13:18:45.923
60.0, -1716.0362651185133, -3704.1222027637996, -855.8817147095688, 2385.6952713844366, -0.06400000303983688, -0.11200000531971455, 1.0240000486373901, 0.0, 0.0, 0.0, 0.0, 0.0, 1.706217525923809E9, 0.0, 2024-01-25 13:18:45.923
61.0, -1551.110416972544, -3492.226951074321, -987.7748964969069, 2545.6096535897814, -0.06400000303983688, -0.09600000455975533, 1.0240000486373901, 0.0, 0.0, 0.0, 0.0, 0.0, 1.706217525933794E9, 0.0, 2024-01-25 13:18:45.933
61.0, -1484.4467002623715, -3420.3124148263596, -854.49234187603, 2659.6803421382792, -0.06400000303983688, -0.09600000455975533, 1.0240000486373901, 0.0, 0.0, 0.0, 0.0, 0.0, 1.706217525933794E9, 0.0, 2024-01-25 13:18:45.933
62.0, -1566.5562037895434, -3586.562187556643, -674.1450162627734, 2480.0940861660056, -0.06400000303983688, -0.09600000455975533, 1.0240000486373901, 0.0, 0.0, 0.0, 0.0, 0.0, 1.706217525948829E9, 0.0, 2024-01-25 13:18:45.948
62.0, -1659.4945876384154, -3607.885227154009, -736.2479249769822, 2696.4024198031984, -0.06400000303983688, -0.09600000455975533, 1.0240000486373901, 0.0, 0.0, 0.0, 0.0, 0.0, 1.706217525948829E9, 0.0, 2024-01-25 13:18:45.948
63.0, -1771.2671076641418, -3707.7873047203757, -659.5724960854277, 2511.1745247477666, -0.06400000303983688, -0.09600000455975533, 1.0240000486373901, 0.0, 0.0, 0.0, 0.0, 0.0, 1.706217525953903E9, 0.0, 2024-01-25 13:18:45.953
63.0, -1671.862436791882, -3645.0486130136997, -693.8561589792371, 2593.5028124223463, -0.06400000303983688, -0.09600000455975533, 1.0240000486373901, 0.0, 0.0, 0.0, 0.0, 0.0, 1.706217525953903E9, 0.0, 2024-01-25 13:18:45.953
64.0, -1628.335611157585, -3586.3003945597447, -774.3388060256839, 2624.7852056017146, -0.06400000303983688, -0.09600000455975533, 1.0240000486373901, 0.0, 0.0, 0.0, 0.0, 0.0, 1.7062175259618E9, 0.0, 2024-01-25 13:18:45.961
64.0, -1688.7181658921763, -3596.5084514888003, -595.1751587484032, 2576.9761945181526, -0.06400000303983688, -0.09600000455975533, 1.0240000486373901, 0.0, 0.0, 0.0, 0.0, 0.0, 1.7062175259618E9, 0.0, 2024-01-25 13:18:45.961
65.0, -1804.1464381245896, -3758.0347305750474, -773.1233385400847, 2626.7860520780087, -0.06400000303983688, -0.09600000455975533, 1.0240000486373901, 0.0, 0.0, 0.0, 0.0, 0.0, 1.706217525996789E9, 0.0, 2024-01-25 13:18:45.996
65.0, -1743.6292469915934, -3728.468951475341, -910.452464913018, 2862.483897035476, -0.06400000303983688, -0.09600000455975533, 1.0240000486373901, 0.0, 0.0, 0.0, 0.0, 0.0, 1.706217525996789E9, 0.0, 2024-01-25 13:18:45.996
66.0, -1612.3998974463902, -3522.280787118245, -1050.2517952066846, 3029.268475459423, -0.06400000303983688, -0.09600000455975533, 1.0240000486373901, 0.0, 0.0, 0.0, 0.0, 0.0, 1.706217526002793E9, 0.0, 2024-01-25 13:18:46.002
66.0, -1535.8516251533292, -3489.186412410345, -953.3173282551579, 3160.11261530919, -0.06400000303983688, -0.09600000455975533, 1.0240000486373901, 0.0, 0.0, 0.0, 0.0, 0.0, 1.706217526002793E9, 0.0, 2024-01-25 13:18:46.002
67.0, -1578.89787364332, -3583.847020188812, -1194.8101481939666, 2956.8116537178867, -0.06400000303983688, -0.09600000455975533, 1.0240000486373901, 0.0, 0.0, 0.0, 0.0, 0.0, 1.706217526010266E9, 0.0, 2024-01-25 13:18:46.010
67.0, -1676.4475541375577, -3606.6884591681883, -1231.1152270138264, 3201.2328153220005, -0.06400000303983688, -0.09600000455975533, 1.0240000486373901, 0.0, 0.0, 0.0, 0.0, 0.0, 1.706217526010266E9, 0.0, 2024-01-25 13:18:46.010
68.0, -1807.2187659381889, -3700.8572701024823, -1213.5302174221724, 2974.2638968611136, -0.06400000303983688, -0.09600000455975533, 1.0240000486373901, 0.0, 0.0, 0.0, 0.0, 0.0, 1.706217526016793E9, 0.0, 2024-01-25 13:18:46.016
68.0, -1642.8408131357282, -3645.5348000079393, -1188.508416768629, 3060.261026392225, -0.06400000303983688, -0.09600000455975533, 1.0240000486373901, 0.0, 0.0, 0.0, 0.0, 0.0, 1.706217526016793E9, 0.0, 2024-01-25 13:18:46.016
69.0, -1567.2181660817005, -3525.983288074378, -1215.585292447824, 3145.304481434636, -0.06400000303983688, -0.09600000455975533, 1.0240000486373901, 0.0, 0.0, 0.0, 0.0, 0.0, 1.706217526021794E9, 0.0, 2024-01-25 13:18:46.021
69.0, -1660.9568885210901, -3583.1196096474305, -1050.2330957069062, 3047.500487743411, -0.06400000303983688, -0.09600000455975533, 1.0240000486373901, 0.0, 0.0, 0.0, 0.0, 0.0, 1.706217526021794E9, 0.0, 2024-01-25 13:18:46.021
70.0, -1781.8229752890766, -3742.349590160884, -1256.5633762623183, 3157.4292370909825, -0.06400000303983688, -0.09600000455975533, 1.0240000486373901, 0.0, 0.0, 0.0, 0.0, 0.0, 1.7062175260388E9, 0.0, 2024-01-25 13:18:46.038
70.0, -1717.3676695027389, -3712.907227759715, -1386.868970518466, 3326.740117934998, -0.06400000303983688, -0.09600000455975533, 1.0240000486373901, 0.0, 0.0, 0.0, 0.0, 0.0, 1.7062175260388E9, 0.0, 2024-01-25 13:18:46.038
71.0, -1560.3891087626107, -3520.399617440533, -1533.2991434335709, 3491.176039186772, -0.06400000303983688, -0.09600000455975533, 1.0240000486373901, 0.0, 0.0, 0.0, 0.0, 0.0, 1.706217526043248E9, 0.0, 2024-01-25 13:18:46.043
71.0, -1535.806746353861, -3477.9854120430537, -1414.2693475438282, 3634.0177780943923, -0.06400000303983688, -0.09600000455975533, 1.0240000486373901, 0.0, 0.0, 0.0, 0.0, 0.0, 1.706217526043248E9, 0.0, 2024-01-25 13:18:46.043
72.0, -1551.9294550628401, -3573.4687978117727, -1171.7125260676257, 3484.605034964625, -0.06400000303983688, -0.09600000455975533, 1.0240000486373901, 0.0, 0.0, 0.0, 0.0, 0.0, 1.706217526048795E9, 0.0, 2024-01-25 13:18:46.048
72.0, -1665.5868846662343, -3629.3597326995805, -1231.9978434033692, 3254.6479364391416, -0.06400000303983688, -0.09600000455975533, 1.0240000486373901, 0.0, 0.0, 0.0, 0.0, 0.0, 1.706217526048795E9, 0.0, 2024-01-25 13:18:46.048
73.0, -1801.066630511079, -3679.0723528605886, -1168.8197134518996, 3475.088859527372, -0.06400000303983688, -0.09600000455975533, 1.0240000486373901, 0.0, 0.0, 0.0, 0.0, 0.0, 1.70621752608592E9, 0.0, 2024-01-25 13:18:46.085
73.0, -1627.9335719123483, -3629.8870585933328, -1149.8041921271943, 3569.474584659096, -0.06400000303983688, -0.09600000455975533, 1.0240000486373901, 0.0, 0.0, 0.0, 0.0, 0.0, 1.70621752608592E9, 0.0, 2024-01-25 13:18:46.085
74.0, -1581.7551572094671, -3561.4711987539195, -1239.1728414683603, 3587.117562700063, -0.06400000303983688, -0.09600000455975533, 1.0240000486373901, 0.0, 0.0, 0.0, 0.0, 0.0, 1.706217526092125E9, 0.0, 2024-01-25 13:18:46.092
74.0, -1618.3930871253833, -3570.134677001275, -1041.8968587056734, 3534.3943230747245, -0.06400000303983688, -0.09600000455975533, 1.0240000486373901, 0.0, 0.0, 0.0, 0.0, 0.0, 1.706217526092125E9, 0.0, 2024-01-25 13:18:46.092
75.0, -1767.996565152891, -3692.3546075532213, -1193.8751732050441, 3659.069497947581, -0.06400000303983688, -0.09600000455975533, 1.0240000486373901, 0.0, 0.0, 0.0, 0.0, 0.0, 1.706217526097265E9, 0.0, 2024-01-25 13:18:46.097
75.0, -1695.6276310603134, -3695.372706817463, -1312.987246893812, 3869.2462656074204, -0.06400000303983688, -0.09600000455975533, 1.0240000486373901, 0.0, 0.0, 0.0, 0.0, 0.0, 1.706217526097265E9, 0.0, 2024-01-25 13:18:46.097
76.0, -1585.4052995662205, -3496.507266573608, -1532.790517039597, 3989.364372384269, -0.06400000303983688, -0.09600000455975533, 1.0240000486373901, 0.0, 0.0, 0.0, 0.0, 0.0, 1.706217526104799E9, 0.0, 2024-01-25 13:18:46.104
76.0, -1493.643114253413, -3431.5302447434515, -1394.6909712757915, 4148.351259400602, -0.06400000303983688, -0.09600000455975533, 1.0240000486373901, 0.0, 0.0, 0.0, 0.0, 0.0, 1.706217526104799E9, 0.0, 2024-01-25 13:18:46.104
77.0, -1577.5664692590944, -3559.9621491217986, -1170.5681166811846, 3982.0005093715154, -0.06400000303983688, -0.09600000455975533, 1.0240000486373901, 0.0, 0.0, 0.0, 0.0, 0.0, 1.706217526129766E9, 0.0, 2024-01-25 13:18:46.129
77.0, -1656.8018596703187, -3625.0083591011353, -1257.4254232021049, 4205.122940727975, -0.06400000303983688, -0.09600000455975533, 1.0240000486373901, 0.0, 0.0, 0.0, 0.0, 0.0, 1.706217526129766E9, 0.0, 2024-01-25 13:18:46.129
78.0, -1801.728592803236, -3713.256908405572, -1209.2742112725973, 4439.480031551328, -0.06400000303983688, -0.09600000455975533, 1.0240000486373901, 0.0, 0.0, 0.0, 0.0, 0.0, 1.706217526136905E9, 0.0, 2024-01-25 13:18:46.136
78.0, -1658.6867692479864, -3644.0631493753754, -1195.4496710863896, 4527.478007558733, -0.06400000303983688, -0.09600000455975533, 1.0240000486373901, 0.0, 0.0, 0.0, 0.0, 0.0, 1.706217526136905E9, 0.0, 2024-01-25 13:18:46.136
79.0, -1613.850978629198, -3600.7906369380653, -1273.3330876636319, 4533.549735136796, -0.06400000303983688, -0.09600000455975533, 1.0240000486373901, 0.0, 0.0, 0.0, 0.0, 0.0, 1.706217526141283E9, 0.0, 2024-01-25 13:18:46.141
79.0, -1700.9364190474153, -3629.918847742956, -1092.2284323093481, 4482.965718286112, -0.06400000303983688, -0.09600000455975533, 1.0240000486373901, 0.0, 0.0, 0.0, 0.0, 0.0, 1.706217526141283E9, 0.0, 2024-01-25 13:18:46.141
80.0, -1782.0137101868168, -3746.558847561013, -1271.4219987862743, 4629.807280196343, -0.06400000303983688, -0.09600000455975533, 1.008000047877431, 0.0, 0.0, 0.0, 0.0, 0.0, 1.706217526146393E9, 0.0, 2024-01-25 13:18:46.146
80.0, -1736.0783889810555, -3729.1739226169884, -1428.4566580257379, 4769.333597793244, -0.06400000303983688, -0.09600000455975533, 1.008000047877431, 0.0, 0.0, 0.0, 0.0, 0.0, 1.706217526146393E9, 0.0, 2024-01-25 13:18:46.146
81.0, -1664.9828908233903, -3590.457293360494, -1615.5956419585273, 4905.798807276413, -0.06400000303983688, -0.11200000531971455, 1.008000047877431, 0.0, 0.0, 0.0, 0.0, 0.0, 1.706217526151785E9, 0.0, 2024-01-25 13:18:46.151
81.0, -1591.5649147932418, -3509.0060122255236, -1487.6424447745085, 5037.585401915014, -0.06400000303983688, -0.11200000531971455, 1.008000047877431, 0.0, 0.0, 0.0, 0.0, 0.0, 1.706217526151785E9, 0.0, 2024-01-25 13:18:46.151
82.0, -1592.7990817786194, -3600.8392556374893, -1261.6272008023225, 4907.096552561037, -0.06400000303983688, -0.11200000531971455, 1.008000047877431, 0.0, 0.0, 0.0, 0.0, 0.0, 1.706217526157783E9, 0.0, 2024-01-25 13:18:46.157
82.0, -1737.8342720102519, -3665.0589477266185, -1305.7411907296628, 5100.348402971402, -0.06400000303983688, -0.11200000531971455, 1.008000047877431, 0.0, 0.0, 0.0, 0.0, 0.0, 1.706217526157783E9, 0.0, 2024-01-25 13:18:46.157
83.0, -1862.3187119853683, -3741.2089206743985, -1211.5106714460999, 4886.304578757379, -0.06400000303983688, -0.11200000531971455, 1.008000047877431, 0.0, 0.0, 0.0, 0.0, 0.0, 1.706217526162918E9, 0.0, 2024-01-25 13:18:46.162
83.0, -1685.5841297293082, -3672.6696441364475, -1207.2004367471673, 5006.461954483762, -0.06400000303983688, -0.11200000531971455, 1.008000047877431, 0.0, 0.0, 0.0, 0.0, 0.0, 1.706217526162918E9, 0.0, 2024-01-25 13:18:46.162
84.0, -1629.8727100393735, -3608.449952047318, -1321.8844688883983, 4991.352758662775, -0.06400000303983688, -0.11200000531971455, 1.008000047877431, 0.0, 0.0, 0.0, 0.0, 0.0, 1.706217526169785E9, 0.0, 2024-01-25 13:18:46.169
84.0, -1723.4880157802254, -3653.62981346203, -1116.5751810208894, 4924.982624099124, -0.06400000303983688, -0.11200000531971455, 1.008000047877431, 0.0, 0.0, 0.0, 0.0, 0.0, 1.706217526169785E9, 0.0, 2024-01-25 13:18:46.169
85.0, -1821.2041218224913, -3748.8775855335407, -1273.4191053626128, 5007.88685636688, -0.06400000303983688, -0.11200000531971455, 1.008000047877431, 0.0, 0.0, 0.0, 0.0, 0.0, 1.706217526176777E9, 0.0, 2024-01-25 13:18:46.176
85.0, -1740.0913016335107, -3736.0478587355465, -1421.231171311345, 5231.732958364766, -0.06400000303983688, -0.11200000531971455, 1.008000047877431, 0.0, 0.0, 0.0, 0.0, 0.0, 1.706217526176777E9, 0.0, 2024-01-25 13:18:46.176
86.0, -1625.9121559862979, -3559.6367778256536, -1549.807061837986, 5381.3027772926725, -0.06400000303983688, -0.11200000531971455, 1.008000047877431, 0.0, 0.0, 0.0, 0.0, 0.0, 1.706217526188776E9, 0.0, 2024-01-25 13:18:46.188
86.0, -1545.8221984351985, -3473.5704601453617, -1443.698620295152, 5516.758213787805, -0.06400000303983688, -0.11200000531971455, 1.008000047877431, 0.0, 0.0, 0.0, 0.0, 0.0, 1.706217526188776E9, 0.0, 2024-01-25 13:18:46.188
87.0, -1601.3634526771493, -3627.317747323774, -1225.1556964344345, 5390.562769582961, -0.06400000303983688, -0.11200000531971455, 1.008000047877431, 0.0, 0.0, 0.0, 0.0, 0.0, 1.70621752619412E9, 0.0, 2024-01-25 13:18:46.194
87.0, -1740.7364343758672, -3654.3516141534783, -1278.5371584519744, 5613.4084483427, -0.06400000303983688, -0.11200000531971455, 1.008000047877431, 0.0, 0.0, 0.0, 0.0, 0.0, 1.70621752619412E9, 0.0, 2024-01-25 13:18:46.194
88.0, -1861.6492698932998, -3770.3988398285583, -1231.5827145082876, 5821.290787379723, -0.06400000303983688, -0.11200000531971455, 1.008000047877431, 0.0, 0.0, 0.0, 0.0, 0.0, 1.706217526234438E9, 0.0, 2024-01-25 13:18:46.234
88.0, -1651.962429127656, -3653.790629160125, -1209.616412118543, 5976.412487791851, -0.06400000303983688, -0.11200000531971455, 1.008000047877431, 0.0, 0.0, 0.0, 0.0, 0.0, 1.706217526234438E9, 0.0, 2024-01-25 13:18:46.234
89.0, -1614.3708247230388, -3587.648628493771, -1274.152125753928, 5990.016373880673, -0.06400000303983688, -0.11200000531971455, 1.008000047877431, 0.0, 0.0, 0.0, 0.0, 0.0, 1.706217526241116E9, 0.0, 2024-01-25 13:18:46.241
89.0, -1738.8627444980666, -3652.3470277772285, -1113.6692787553184, 5898.817043511197, -0.06400000303983688, -0.11200000531971455, 1.008000047877431, 0.0, 0.0, 0.0, 0.0, 0.0, 1.706217526241116E9, 0.0, 2024-01-25 13:18:46.241
90.0, -1845.2853376371786, -3805.862441158388, -1267.4128260337748, 6035.83388823783, -0.06400000303983688, -0.11200000531971455, 1.0240000486373901, 0.0, 0.0, 0.0, 0.0, 0.0, 1.706217526247793E9, 0.0, 2024-01-25 13:18:46.247
90.0, -1768.2190892002545, -3749.1113292807713, -1438.3262540088035, 6191.9915409376845, -0.06400000303983688, -0.11200000531971455, 1.0240000486373901, 0.0, 0.0, 0.0, 0.0, 0.0, 1.706217526247793E9, 0.0, 2024-01-25 13:18:46.247
91.0, -1649.380028208252, -3567.4045500336215, -1570.1221983972937, 6378.904260923155, -0.06400000303983688, -0.11200000531971455, 1.0240000486373901, 0.0, 0.0, 0.0, 0.0, 0.0, 1.706217526252103E9, 0.0, 2024-01-25 13:18:46.252
91.0, -1560.3891087626107, -3481.4840884516016, -1439.5922101438046, 6545.419566550292, -0.06400000303983688, -0.11200000531971455, 1.0240000486373901, 0.0, 0.0, 0.0, 0.0, 0.0, 1.706217526252103E9, 0.0, 2024-01-25 13:18:46.252
92.0, -1597.0176889286377, -3630.1825106898323, -1231.831417855341, 6395.520636426285, -0.06400000303983688, -0.11200000531971455, 1.0240000486373901, 0.0, 0.0, 0.0, 0.0, 0.0, 1.706217526258776E9, 0.0, 2024-01-25 13:18:46.258
92.0, -1759.046984558925, -3693.6392631880008, -1296.3278625411913, 6563.595480334945, -0.06400000303983688, -0.11200000531971455, 1.0240000486373901, 0.0, 0.0, 0.0, 0.0, 0.0, 1.706217526258776E9, 0.0, 2024-01-25 13:18:46.258
93.0, -1844.2138562998734, -3773.1813253955916, -1215.87513469439, 6361.897065874655, -0.06400000303983688, -0.11200000531971455, 1.0240000486373901, 0.0, 0.0, 0.0, 0.0, 0.0, 1.706217526264889E9, 0.0, 2024-01-25 13:18:46.264
93.0, -1639.6394587736577, -3670.504242062103, -1176.2901636133902, 6520.825984441675, -0.06400000303983688, -0.11200000531971455, 1.0240000486373901, 0.0, 0.0, 0.0, 0.0, 0.0, 1.706217526264889E9, 0.0, 2024-01-25 13:18:46.264
94.0, -1654.8122328938916, -3606.411706571467, -1260.9764582100324, 6510.933949058875, -0.06400000303983688, -0.11200000531971455, 1.0240000486373901, 0.0, 0.0, 0.0, 0.0, 0.0, 1.706217526324517E9, 0.0, 2024-01-25 13:18:46.324
94.0, -1720.2660919683985, -3623.456300619524, -1141.4567354260944, 6413.380528664682, -0.06400000303983688, -0.11200000531971455, 1.0240000486373901, 0.0, 0.0, 0.0, 0.0, 0.0, 1.706217526324517E9, 0.0, 2024-01-25 13:18:46.324
95.0, -1805.1094623631798, -3750.6278587128036, -1249.4949653460644, 6572.978889323771, -0.06400000303983688, -0.11200000531971455, 1.0240000486373901, 0.0, 0.0, 0.0, 0.0, 0.0, 1.70621752633177E9, 0.0, 2024-01-25 13:18:46.331
95.0, -1739.9099164856598, -3750.427774065174, -1414.4582124915905, 6771.158057925757, -0.06400000303983688, -0.11200000531971455, 1.0240000486373901, 0.0, 0.0, 0.0, 0.0, 0.0, 1.70621752633177E9, 0.0, 2024-01-25 13:18:46.331
96.0, -1651.4164037341252, -3591.6802406460047, -1569.033887510188, 6874.914102396462, -0.06400000303983688, -0.11200000531971455, 1.0240000486373901, 0.0, 0.0, 0.0, 0.0, 0.0, 1.706217526340768E9, 0.0, 2024-01-25 13:18:46.340
96.0, -1523.3809287510812, -3430.584050054662, -1442.0156653150916, 7066.037949732039, -0.06400000303983688, -0.11200000531971455, 1.0240000486373901, 0.0, 0.0, 0.0, 0.0, 0.0, 1.706217526340768E9, 0.0, 2024-01-25 13:18:46.340
97.0, -1565.5258613517508, -3580.385742779821, -1199.6944575360976, 6890.318750313949, -0.06400000303983688, -0.11200000531971455, 1.0240000486373901, 0.0, 0.0, 0.0, 0.0, 0.0, 1.70621752634611E9, 0.0, 2024-01-25 13:18:46.346
97.0, -1721.2908245562576, -3667.5198018974625, -1279.0644843457267, 7042.40926181199, -0.06400000303983688, -0.11200000531971455, 1.0240000486373901, 0.0, 0.0, 0.0, 0.0, 0.0, 1.70621752634611E9, 0.0, 2024-01-25 13:18:46.346
98.0, -1801.2442757589743, -3717.7896671518683, -1165.6819373890758, 6827.135010512546, -0.06400000303983688, -0.11200000531971455, 1.0240000486373901, 0.0, 0.0, 0.0, 0.0, 0.0, 1.706217526351901E9, 0.0, 2024-01-25 13:18:46.351
98.0, -1619.4309093630873, -3619.6528223645873, -1129.2833610703237, 6981.183359637391, -0.06400000303983688, -0.11200000531971455, 1.0240000486373901, 0.0, 0.0, 0.0, 0.0, 0.0, 1.706217526351901E9, 0.0, 2024-01-25 13:18:46.351
99.0, -1634.0651378897019, -3614.3664737772197, -1300.5857386407442, 6979.4143869583495, -0.06400000303983688, -0.11200000531971455, 1.0240000486373901, 0.0, 0.0, 0.0, 0.0, 0.0, 1.706217526357756E9, 0.0, 2024-01-25 13:18:46.357
99.0, -1699.9303859593347, -3618.34011748014, -1072.788432339672, 6909.977534431033, -0.06400000303983688, -0.11200000531971455, 1.0240000486373901, 0.0, 0.0, 0.0, 0.0, 0.0, 1.706217526357756E9, 0.0, 2024-01-25 13:18:46.357
100.0, -1773.7522711846977, -3721.703472455498, -1223.4353424548171, 7075.698111317586, -0.06400000303983688, -0.11200000531971455, 1.008000047877431, 0.0, 0.0, 0.0, 0.0, 0.0, 1.70621752640076E9, 0.0, 2024-01-25 13:18:46.400
100.0, -1727.5888160816394, -3728.2819564775564, -1410.7519716355018, 7236.119249966927, -0.06400000303983688, -0.11200000531971455, 1.008000047877431, 0.0, 0.0, 0.0, 0.0, 0.0, 1.70621752640076E9, 0.0, 2024-01-25 13:18:46.400
1.0, -1644.3947415673174, -3629.690713845659, -1220.9782281839289, 7363.915371352807, -0.06400000303983688, -0.09600000455975533, 1.008000047877431, 0.0, 0.0, 0.0, 0.0, 0.0, 1.706217526405429E9, 0.0, 2024-01-25 13:18:46.405
1.0, -1655.4760651360266, -3707.035584829282, -988.4929572883993, 7307.5588189205155, -0.06400000303983688, -0.09600000455975533, 1.008000047877431, 0.0, 0.0, 0.0, 0.0, 0.0, 1.706217526405429E9, 0.0, 2024-01-25 13:18:46.405
2.0, -1824.6597893815488, -3776.5846343552694, -1071.064338460099, 7479.998126077466, -0.06400000303983688, -0.09600000455975533, 1.008000047877431, 0.0, 0.0, 0.0, 0.0, 0.0, 1.706217526410105E9, 0.0, 2024-01-25 13:18:46.410
2.0, -1930.403590678703, -3885.728004712146, -1009.8907948848791, 7698.595278487541, -0.06400000303983688, -0.09600000455975533, 1.008000047877431, 0.0, 0.0, 0.0, 0.0, 0.0, 1.706217526410105E9, 0.0, 2024-01-25 13:18:46.410
3.0, -1750.9650607546791, -3766.0418563801795, -954.64312278945, 7861.25661721034, -0.06400000303983688, -0.09600000455975533, 1.008000047877431, 0.0, 0.0, 0.0, 0.0, 0.0, 1.706217526415892E9, 0.0, 2024-01-25 13:18:46.415
3.0, -1726.9380734893493, -3740.1449191370048, -1065.239444279112, 7857.6176945534535, -0.06400000303983688, -0.09600000455975533, 1.008000047877431, 0.0, 0.0, 0.0, 0.0, 0.0, 1.706217526415892E9, 0.0, 2024-01-25 13:18:46.415
4.0, -1789.2279772013426, -3761.1201480384916, -877.93777469825, 7788.704428019933, -0.06400000303983688, -0.09600000455975533, 1.008000047877431, 0.0, 0.0, 0.0, 0.0, 0.0, 1.70621752642142E9, 0.0, 2024-01-25 13:18:46.421
4.0, -1863.8277616174892, -3882.1021717051044, -1029.3551042042673, 7942.984650942031, -0.06400000303983688, -0.09600000455975533, 1.008000047877431, 0.0, 0.0, 0.0, 0.0, 0.0, 1.70621752642142E9, 0.0, 2024-01-25 13:18:46.421
5.0, -1847.269354563672, -3868.5693437154405, -1200.522845376283, 8122.015531770885, -0.06400000303983688, -0.09600000455975533, 1.008000047877431, 0.0, 0.0, 0.0, 0.0, 0.0, 1.706217526425778E9, 0.0, 2024-01-25 13:18:46.425
5.0, -1757.2948414296843, -3720.7909368663095, -1406.552063985262, 8214.813669371419, -0.06400000303983688, -0.09600000455975533, 1.008000047877431, 0.0, 0.0, 0.0, 0.0, 0.0, 1.706217526425778E9, 0.0, 2024-01-25 13:18:46.425
6.0, -1659.186045892071, -3592.6357850846834, -1229.0638918881305, 8422.082664815709, -0.06400000303983688, -0.09600000455975533, 1.008000047877431, 0.0, 0.0, 0.0, 0.0, 0.0, 1.706217526431089E9, 0.0, 2024-01-25 13:18:46.431
6.0, -1676.5242220866494, -3723.53228353383, -987.0194367058575, 8303.707351418212, -0.06400000303983688, -0.09600000455975533, 1.008000047877431, 0.0, 0.0, 0.0, 0.0, 0.0, 1.706217526431089E9, 0.0, 2024-01-25 13:18:46.431
9.0, -1706.2994355838746, -3724.102618277073, -768.2427690979093, 8254.652953649405, -0.06400000303983688, -0.09600000455975533, 1.008000047877431, 0.0, 0.0, 0.0, 0.0, 0.0, 1.706217526435782E9, 0.0, 2024-01-25 13:18:46.435
9.0, -1783.1132407737896, -3847.1752460189164, -918.1790982214734, 8389.908305496909, -0.06400000303983688, -0.09600000455975533, 1.008000047877431, 0.0, 0.0, 0.0, 0.0, 0.0, 1.706217526435782E9, 0.0, 2024-01-25 13:18:46.435
10.0, -1723.6357418284751, -3835.747981704306, -1107.8032456748188, 8589.863926577847, -0.06400000303983688, -0.09600000455975533, 1.008000047877431, 0.0, 0.0, 0.0, 0.0, 0.0, 1.706217526441796E9, 0.0, 2024-01-25 13:18:46.441
10.0, -1636.3015980632044, -3678.223395570647, -1258.27999034198, 8675.088766768109, -0.06400000303983688, -0.09600000455975533, 1.008000047877431, 0.0, 0.0, 0.0, 0.0, 0.0, 1.706217526441796E9, 0.0, 2024-01-25 13:18:46.441
11.0, -1555.2878852230497, -3570.9967239410616, -1109.5927878036164, 8889.183079631533, -0.06400000303983688, -0.11200000531971455, 1.008000047877431, 0.0, 0.0, 0.0, 0.0, 0.0, 1.706217526460739E9, 0.0, 2024-01-25 13:18:46.460
11.0, -1563.4520868263207, -3671.0764467553236, -869.8857700936496, 8777.210474958178, -0.06400000303983688, -0.11200000531971455, 1.008000047877431, 0.0, 0.0, 0.0, 0.0, 0.0, 1.706217526460739E9, 0.0, 2024-01-25 13:18:46.460
12.0, -1735.9718018323183, -3758.6854731673375, -979.4667087453417, 8898.476731021423, -0.06400000303983688, -0.11200000531971455, 1.008000047877431, 0.0, 0.0, 0.0, 0.0, 0.0, 1.706217526466769E9, 0.0, 2024-01-25 13:18:46.466
12.0, -1805.371255360078, -3820.8930990803055, -876.417505366262, 8715.814407335594, -0.06400000303983688, -0.11200000531971455, 1.008000047877431, 0.0, 0.0, 0.0, 0.0, 0.0, 1.706217526466769E9, 0.0, 2024-01-25 13:18:46.466
13.0, -1647.2838142830878, -3736.208674433641, -836.5670013884082, 8804.178893538658, -0.06400000303983688, -0.11200000531971455, 1.008000047877431, 0.0, 0.0, 0.0, 0.0, 0.0, 1.706217526472769E9, 0.0, 2024-01-25 13:18:46.472
13.0, -1641.8403898975812, -3698.931221625302, -953.195781506598, 8813.160263282247, -0.06400000303983688, -0.11200000531971455, 1.008000047877431, 0.0, 0.0, 0.0, 0.0, 0.0, 1.706217526472769E9, 0.0, 2024-01-25 13:18:46.472
14.0, -1723.226222783327, -3754.178893720731, -813.8919879570603, 8739.594561203849, -0.06400000303983688, -0.11200000531971455, 1.008000047877431, 0.0, 0.0, 0.0, 0.0, 0.0, 1.706217526479778E9, 0.0, 2024-01-25 13:18:46.479
14.0, -1787.5861611207947, -3853.200224847533, -916.6494791395962, 8957.262348474935, -0.06400000303983688, -0.11200000531971455, 1.008000047877431, 0.0, 0.0, 0.0, 0.0, 0.0, 1.706217526479778E9, 0.0, 2024-01-25 13:18:46.479
15.0, -1713.9269615435041, -3844.4245496015064, -1072.0946808978915, 9096.16036287928, -0.06400000303983688, -0.11200000531971455, 1.008000047877431, 0.0, 0.0, 0.0, 0.0, 0.0, 1.706217526484278E9, 0.0, 2024-01-25 13:18:46.484
15.0, -1634.6223829830997, -3675.511968102772, -1263.912279675249, 9167.487734834198, -0.06400000303983688, -0.11200000531971455, 1.008000047877431, 0.0, 0.0, 0.0, 0.0, 0.0, 1.706217526484278E9, 0.0, 2024-01-25 13:18:46.484
16.0, -1497.9926179018803, -3529.0387863381766, -1109.4207524056546, 9375.482270869892, -0.06400000303983688, -0.11200000531971455, 1.008000047877431, 0.0, 0.0, 0.0, 0.0, 0.0, 1.706217526490772E9, 0.0, 2024-01-25 13:18:46.490
16.0, -1551.787338864524, -3660.1110600852408, -1346.2573968996294, 9280.552390294615, -0.06400000303983688, -0.11200000531971455, 1.008000047877431, 0.0, 0.0, 0.0, 0.0, 0.0, 1.706217526490772E9, 0.0, 2024-01-25 13:18:46.490
17.0, -1737.3780042156577, -3769.740617436357, -1469.290755691938, 9421.65507572284, -0.06400000303983688, -0.11200000531971455, 1.008000047877431, 0.0, 0.0, 0.0, 0.0, 0.0, 1.706217526520773E9, 0.0, 2024-01-25 13:18:46.520
17.0, -1821.654779767152, -3810.1595862074755, -1342.3922102954239, 9202.988735163584, -0.06400000303983688, -0.11200000531971455, 1.008000047877431, 0.0, 0.0, 0.0, 0.0, 0.0, 1.706217526520773E9, 0.0, 2024-01-25 13:18:46.520
18.0, -1644.1909170197323, -3736.4555078307167, -1327.4494400224648, 9349.579723776784, -0.06400000303983688, -0.11200000531971455, 1.008000047877431, 0.0, 0.0, 0.0, 0.0, 0.0, 1.706217526528777E9, 0.0, 2024-01-25 13:18:46.528
18.0, -1622.7482006237842, -3688.388443650212, -1470.2313405307941, 9280.698246392887, -0.06400000303983688, -0.11200000531971455, 1.008000047877431, 0.0, 0.0, 0.0, 0.0, 0.0, 1.706217526528777E9, 0.0, 2024-01-25 13:18:46.528
19.0, -1695.4312863126397, -3702.1194863375276, -1257.2253385544755, 9257.65859271586, -0.06400000303983688, -0.11200000531971455, 1.008000047877431, 0.0, 0.0, 0.0, 0.0, 0.0, 1.706217526534763E9, 0.0, 2024-01-25 13:18:46.534
19.0, -1731.9514093799517, -3811.4592014420778, -1375.256581156049, 9443.701785961632, -0.06400000303983688, -0.11200000531971455, 1.008000047877431, 0.0, 0.0, 0.0, 0.0, 0.0, 1.706217526534763E9, 0.0, 2024-01-25 13:18:46.534
20.0, -1734.7750338464975, -3814.903649301268, -1569.454626255203, 9627.523478633724, -0.06400000303983688, -0.11200000531971455, 1.0240000486373901, 0.0, 0.0, 0.0, 0.0, 0.0, 1.706217526548068E9, 0.0, 2024-01-25 13:18:46.548
20.0, -1654.1390509018674, -3703.94829741586, -1785.1290468499064, 9686.000554340892, -0.06400000303983688, -0.11200000531971455, 1.0240000486373901, 0.0, 0.0, 0.0, 0.0, 0.0, 1.706217526548068E9, 0.0, 2024-01-25 13:18:46.548
21.0, -1522.7788048582152, -3507.2931380458176, -1560.7612288082018, 9891.564155405387, -0.06400000303983688, -0.11200000531971455, 1.0240000486373901, 0.0, 0.0, 0.0, 0.0, 0.0, 1.70621752655377E9, 0.0, 2024-01-25 13:18:46.553
21.0, -1535.7637375043705, -3633.645658048801, -1320.814857501071, 9766.120431091636, -0.06400000303983688, -0.11200000531971455, 1.0240000486373901, 0.0, 0.0, 0.0, 0.0, 0.0, 1.70621752655377E9, 0.0, 2024-01-25 13:18:46.553
22.0, -1760.1970037952997, -3758.025380825158, -1481.0677006524056, 9942.838183797896, -0.04800000227987766, -0.11200000531971455, 1.0240000486373901, 0.0, 0.0, 0.0, 0.0, 0.0, 1.706217526559408E9, 0.0, 2024-01-25 13:18:46.559
22.0, -1808.6866766707972, -3809.4695746656507, -1360.9682933753356, 9729.811612371821, -0.04800000227987766, -0.11200000531971455, 1.0240000486373901, 0.0, 0.0, 0.0, 0.0, 0.0, 1.706217526559408E9, 0.0, 2024-01-25 13:18:46.559
23.0, -1617.0485930913128, -3692.00866680732, -1312.40756240068, 9894.062408575788, -0.04800000227987766, -0.11200000531971455, 1.0240000486373901, 0.0, 0.0, 0.0, 0.0, 0.0, 1.706217526562755E9, 0.0, 2024-01-25 13:18:46.562
23.0, -1629.951247938443, -3691.3036956656724, -1478.2384663359262, 9870.856329350732, -0.04800000227987766, -0.11200000531971455, 1.0240000486373901, 0.0, 0.0, 0.0, 0.0, 0.0, 1.706217526562755E9, 0.0, 2024-01-25 13:18:46.562
24.0, -1725.3841450577602, -3743.383672498632, -1269.8400211050175, 9770.931812384631, -0.04800000227987766, -0.11200000531971455, 1.0240000486373901, 0.0, 0.0, 0.0, 0.0, 0.0, 1.706217526569775E9, 0.0, 2024-01-25 13:18:46.569
24.0, -1764.6717940922827, -3813.2599632707424, -1417.1322409599088, 9954.431873660535, -0.04800000227987766, -0.11200000531971455, 1.0240000486373901, 0.0, 0.0, 0.0, 0.0, 0.0, 1.706217526569775E9, 0.0, 2024-01-25 13:18:46.569
25.0, -1731.6914863330312, -3805.415523113683, -1559.0277851787396, 10082.22238519648, -0.04800000227987766, -0.11200000531971455, 1.0240000486373901, 0.0, 0.0, 0.0, 0.0, 0.0, 1.706217526578758E9, 0.0, 2024-01-25 13:18:46.578
25.0, -1661.32152876677, -3677.5408638287336, -1761.78459132649, 10165.154666713905, -0.04800000227987766, -0.11200000531971455, 1.0240000486373901, 0.0, 0.0, 0.0, 0.0, 0.0, 1.706217526578758E9, 0.0, 2024-01-25 13:18:46.578
26.0, -1501.059335865546, -3517.6152619235218, -1531.982698649168, 10377.54732509749, -0.04800000227987766, -0.11200000531971455, 1.0240000486373901, 0.0, 0.0, 0.0, 0.0, 0.0, 1.706217526624768E9, 0.0, 2024-01-25 13:18:46.624
26.0, -1537.2578275366686, -3654.9369084965438, -1359.623799341265, 10257.85556691559, -0.04800000227987766, -0.11200000531971455, 1.0240000486373901, 0.0, 0.0, 0.0, 0.0, 0.0, 1.706217526624768E9, 0.0, 2024-01-25 13:18:46.624
27.0, -1736.3532716277987, -3757.5878125303425, -1471.789008862339, 10454.839837481733, -0.04800000227987766, -0.11200000531971455, 1.0240000486373901, 0.0, 0.0, 0.0, 0.0, 0.0, 1.70621752663078E9, 0.0, 2024-01-25 13:18:46.630
27.0, -1797.6857609511353, -3776.345280758105, -1301.904053375125, 10655.549048403744, -0.04800000227987766, -0.11200000531971455, 1.0240000486373901, 0.0, 0.0, 0.0, 0.0, 0.0, 1.70621752663078E9, 0.0, 2024-01-25 13:18:46.630
28.0, -1590.9272618507966, -3673.735515623819, -1278.7671622992493, 10849.760183152743, -0.04800000227987766, -0.11200000531971455, 1.0240000486373901, 0.0, 0.0, 0.0, 0.0, 0.0, 1.706217526637762E9, 0.0, 2024-01-25 13:18:46.637
28.0, -1630.5402821814641, -3706.4745998359285, -1459.5763655570336, 10778.83672039304, -0.04800000227987766, -0.11200000531971455, 1.0240000486373901, 0.0, 0.0, 0.0, 0.0, 0.0, 1.706217526637762E9, 0.0, 2024-01-25 13:18:46.637
29.0, -1706.6341566299088, -3721.518347407691, -1252.3073701127432, 10738.38409252232, -0.04800000227987766, -0.11200000531971455, 1.0240000486373901, 0.0, 0.0, 0.0, 0.0, 0.0, 1.706217526646759E9, 0.0, 2024-01-25 13:18:46.646
29.0, -1784.712048004847, -3840.7912367945537, -1422.412979697343, 10916.633334260434, -0.04800000227987766, -0.11200000531971455, 1.0240000486373901, 0.0, 0.0, 0.0, 0.0, 0.0, 1.706217526646759E9, 0.0, 2024-01-25 13:18:46.646
30.0, -1721.0757803088054, -3816.9587243269198, -1584.7321175741963, 11056.645838851575, -0.04800000227987766, -0.11200000531971455, 1.0240000486373901, 0.0, 0.0, 0.0, 0.0, 0.0, 1.706217526652773E9, 0.0, 2024-01-25 13:18:46.652
30.0, -1660.571678825654, -3683.90430360334, -1766.5417440701276, 11155.816765976604, -0.04800000227987766, -0.11200000531971455, 1.0240000486373901, 0.0, 0.0, 0.0, 0.0, 0.0, 1.706217526652773E9, 0.0, 2024-01-25 13:18:46.652
31.0, -1491.4608826292679, -3526.07678557327, -1573.8172195535153, 11385.584999554325, -0.04800000227987766, -0.11200000531971455, 1.0240000486373901, 0.0, 0.0, 0.0, 0.0, 0.0, 1.706217526658488E9, 0.0, 2024-01-25 13:18:46.658
31.0, -1538.5163038717583, -3648.4388323235326, -1345.0007905145176, 11210.995249922853, -0.04800000227987766, -0.11200000531971455, 1.0240000486373901, 0.0, 0.0, 0.0, 0.0, 0.0, 1.706217526658488E9, 0.0, 2024-01-25 13:18:46.658
32.0, -1738.8421750483103, -3763.349128412083, -1496.1544570736587, 11343.918774147984, -0.06400000303983688, -0.11200000531971455, 1.0240000486373901, 0.0, 0.0, 0.0, 0.0, 0.0, 1.706217526664757E9, 0.0, 2024-01-25 13:18:46.664
32.0, -1808.3725250745192, -3822.493776261341, -1363.4216677462682, 11160.269116873853, -0.06400000303983688, -0.11200000531971455, 1.0240000486373901, 0.0, 0.0, 0.0, 0.0, 0.0, 1.706217526664757E9, 0.0, 2024-01-25 13:18:46.664
33.0, -1610.4701090692542, -3672.4172008894384, -1291.5464004478417, 11347.88680800097, -0.06400000303983688, -0.11200000531971455, 1.0240000486373901, 0.0, 0.0, 0.0, 0.0, 0.0, 1.70621752669876E9, 0.0, 2024-01-25 13:18:46.698
33.0, -1669.7063844674267, -3678.270144320093, -1486.85145593388, 11304.848039310891, -0.06400000303983688, -0.11200000531971455, 1.0240000486373901, 0.0, 0.0, 0.0, 0.0, 0.0, 1.70621752669876E9, 0.0, 2024-01-25 13:18:46.698
34.0, -1685.284937732853, -3720.1289745741524, -1245.3661157949828, 11230.96444573626, -0.06400000303983688, -0.11200000531971455, 1.0240000486373901, 0.0, 0.0, 0.0, 0.0, 0.0, 1.706217526716752E9, 0.0, 2024-01-25 13:18:46.716
34.0, -1773.0042911935598, -3808.790782823693, -1364.2276161867194, 11381.358912604395, -0.06400000303983688, -0.11200000531971455, 1.0240000486373901, 0.0, 0.0, 0.0, 0.0, 0.0, 1.706217526716752E9, 0.0, 2024-01-25 13:18:46.716
35.0, -1695.2686006645672, -3787.2358694290742, -1523.0387279051356, 11554.851001598872, -0.06400000303983688, -0.11200000531971455, 1.0240000486373901, 0.0, 0.0, 0.0, 0.0, 0.0, 1.706217526719786E9, 0.0, 2024-01-25 13:18:46.719
35.0, -1619.0382198677398, -3658.8488438501954, -1764.3875616956502, 11622.636688295752, -0.06400000303983688, -0.11200000531971455, 1.0240000486373901, 0.0, 0.0, 0.0, 0.0, 0.0, 1.706217526719786E9, 0.0, 2024-01-25 13:18:46.719
36.0, -1489.0205979081802, -3520.8652349850163, -1592.3858228335157, 11424.880128388759, -0.06400000303983688, -0.11200000531971455, 1.0240000486373901, 0.0, 0.0, 0.0, 0.0, 0.0, 1.706217526726208E9, 0.0, 2024-01-25 13:18:46.726
36.0, -1533.876957976725, -3634.143064742908, -1800.9301241626963, 11255.10363000026, -0.06400000303983688, -0.11200000531971455, 1.0240000486373901, 0.0, 0.0, 0.0, 0.0, 0.0, 1.706217526726208E9, 0.0, 2024-01-25 13:18:46.726
37.0, -1719.4077849285677, -3757.9618025259115, -1944.6413898100145, 11381.59826620156, -0.06400000303983688, -0.11200000531971455, 1.0240000486373901, 0.0, 0.0, 0.0, 0.0, 0.0, 1.706217526731368E9, 0.0, 2024-01-25 13:18:46.731
37.0, -1791.3728098259307, -3752.8269198867492, -1829.0261225798167, 11184.88887828216, -0.06400000303983688, -0.11200000531971455, 1.0240000486373901, 0.0, 0.0, 0.0, 0.0, 0.0, 1.706217526731368E9, 0.0, 2024-01-25 13:18:46.731
38.0, -1559.5794204222038, -3659.6529223406687, -1745.2093547228724, 11347.553956904914, -0.06400000303983688, -0.11200000531971455, 1.0240000486373901, 0.0, 0.0, 0.0, 0.0, 0.0, 1.706217526735424E9, 0.0, 2024-01-25 13:18:46.735
38.0, -1571.3077466832474, -3688.573568698019, -1914.712840414606, 11280.920159394387, -0.06400000303983688, -0.11200000531971455, 1.0240000486373901, 0.0, 0.0, 0.0, 0.0, 0.0, 1.706217526735424E9, 0.0, 2024-01-25 13:18:46.735
39.0, -1692.377657998819, -3675.775631049648, -1743.765753339976, 11230.040690447204, -0.06400000303983688, -0.11200000531971455, 1.0240000486373901, 0.0, 0.0, 0.0, 0.0, 0.0, 1.706217526740766E9, 0.0, 2024-01-25 13:18:46.740
39.0, -1767.0148414145224, -3787.6696978239343, -1865.2825827002525, 11404.946461624932, -0.06400000303983688, -0.11200000531971455, 1.0240000486373901, 0.0, 0.0, 0.0, 0.0, 0.0, 1.706217526740766E9, 0.0, 2024-01-25 13:18:46.740
40.0, -1712.6834448082373, -3790.5008020903915, -2074.4028286226094, 11617.685060754418, -0.06400000303983688, -0.11200000531971455, 1.0240000486373901, 0.0, 0.0, 0.0, 0.0, 0.0, 1.706217526745844E9, 0.0, 2024-01-25 13:18:46.745
40.0, -1685.2624983331189, -3696.1767853079364, -2290.832709008362, 11638.501343907788, -0.06400000303983688, -0.11200000531971455, 1.0240000486373901, 0.0, 0.0, 0.0, 0.0, 0.0, 1.706217526745844E9, 0.0, 2024-01-25 13:18:46.745
41.0, -1480.5889934580773, -3502.184434706345, -2520.7785878339782, 11400.757773674559, -0.06400000303983688, -0.11200000531971455, 1.0240000486373901, 0.0, 0.0, 0.0, 0.0, 0.0, 1.706217526753719E9, 0.0, 2024-01-25 13:18:46.753
41.0, -1533.2206055345014, -3658.650629152544, -2302.0075300759636, 11290.296088583302, -0.06400000303983688, -0.11200000531971455, 1.0240000486373901, 0.0, 0.0, 0.0, 0.0, 0.0, 1.706217526753719E9, 0.0, 2024-01-25 13:18:46.753
42.0, -1768.0844528018497, -3796.4004942704923, -2459.7957791564986, 11372.846900305245, -0.06400000303983688, -0.11200000531971455, 1.0240000486373901, 0.0, 0.0, 0.0, 0.0, 0.0, 1.706217526758756E9, 0.0, 2024-01-25 13:18:46.758
42.0, -1787.9751107161865, -3797.333599309437, -2298.684628965333, 11202.731940970756, -0.06400000303983688, -0.11200000531971455, 1.0240000486373901, 0.0, 0.0, 0.0, 0.0, 0.0, 1.706217526758756E9, 0.0, 2024-01-25 13:18:46.758
43.0, -1591.6771117919125, -3694.480740678031, -2256.5864451141097, 11335.272125450429, -0.06400000303983688, -0.11200000531971455, 1.0240000486373901, 0.0, 0.0, 0.0, 0.0, 0.0, 1.706217526789478E9, 0.0, 2024-01-25 13:18:46.789
43.0, -1664.732317526359, -3716.5349307167344, -2438.7120931562968, 11260.732179433573, -0.06400000303983688, -0.11200000531971455, 1.0240000486373901, 0.0, 0.0, 0.0, 0.0, 0.0, 1.706217526789478E9, 0.0, 2024-01-25 13:18:46.789
44.0, -1694.8329023197293, -3737.8430107142776, -2234.356479777489, 11223.118135629222, -0.06400000303983688, -0.11200000531971455, 1.0240000486373901, 0.0, 0.0, 0.0, 0.0, 0.0, 1.706217526793746E9, 0.0, 2024-01-25 13:18:46.793
44.0, -1752.438581337221, -3785.878285745159, -2311.544274962973, 11452.256196064409, -0.06400000303983688, -0.11200000531971455, 1.0240000486373901, 0.0, 0.0, 0.0, 0.0, 0.0, 1.706217526793746E9, 0.0, 2024-01-25 13:18:46.793
45.0, -1698.4026368274353, -3787.5575008252636, -2514.2393727614544, 11536.791024712846, -0.06400000303983688, -0.11200000531971455, 1.0240000486373901, 0.0, 0.0, 0.0, 0.0, 0.0, 1.706217526798749E9, 0.0, 2024-01-25 13:18:46.798
45.0, -1661.4561651651748, -3700.69458445441, -2293.319742478896, 11566.351193962619, -0.06400000303983688, -0.11200000531971455, 1.0240000486373901, 0.0, 0.0, 0.0, 0.0, 0.0, 1.706217526798749E9, 0.0, 2024-01-25 13:18:46.798
46.0, -1463.2339877136983, -3507.180941047147, -2068.7312703398056, 11351.61922815675, -0.06400000303983688, -0.11200000531971455, 1.0240000486373901, 0.0, 0.0, 0.0, 0.0, 0.0, 1.706217526803497E9, 0.0, 2024-01-25 13:18:46.803
46.0, -1517.9038452659734, -3628.521995109506, -2297.504690529313, 11225.042314156424, -0.06400000303983688, -0.11200000531971455, 1.0240000486373901, 0.0, 0.0, 0.0, 0.0, 0.0, 1.706217526803497E9, 0.0, 2024-01-25 13:18:46.803
47.0, -1720.9448838103563, -3799.6055885325186, -2475.073270475492, 11312.956142414827, -0.06400000303983688, -0.11200000531971455, 1.0240000486373901, 0.0, 0.0, 0.0, 0.0, 0.0, 1.706217526810732E9, 0.0, 2024-01-25 13:18:46.810
47.0, -1787.1654223757796, -3815.329997896217, -2350.837533847429, 11198.0944650257, -0.06400000303983688, -0.11200000531971455, 1.0240000486373901, 0.0, 0.0, 0.0, 0.0, 0.0, 1.706217526810732E9, 0.0, 2024-01-25 13:18:46.810
48.0, -1620.2929563028738, -3690.052699130494, -2290.241804815363, 11331.491086595226, -0.06400000303983688, -0.11200000531971455, 1.0240000486373901, 0.0, 0.0, 0.0, 0.0, 0.0, 1.706217526817757E9, 0.0, 2024-01-25 13:18:46.817
48.0, -1669.1285699242726, -3727.3619410884567, -2451.82044250099, 11237.690655806568, -0.06400000303983688, -0.11200000531971455, 1.0240000486373901, 0.0, 0.0, 0.0, 0.0, 0.0, 1.706217526817757E9, 0.0, 2024-01-25 13:18:46.817
49.0, -1719.8808822729625, -3713.69260675041, -2275.940427384805, 11200.31596559938, -0.06400000303983688, -0.11200000531971455, 1.0240000486373901, 0.0, 0.0, 0.0, 0.0, 0.0, 1.706217526849778E9, 0.0, 2024-01-25 13:18:46.849
49.0, -1752.2422365895472, -3816.120986736845, -2374.729884714354, 11355.205792214256, -0.06400000303983688, -0.11200000531971455, 1.0240000486373901, 0.0, 0.0, 0.0, 0.0, 0.0, 1.706217526849778E9, 0.0, 2024-01-25 13:18:46.849
50.0, -1741.4694547671825, -3833.9341302257963, -2577.4960406119935, 11518.095264834352, -0.06400000303983688, -0.11200000531971455, 1.0240000486373901, 0.0, 0.0, 0.0, 0.0, 0.0, 1.706217526879413E9, 0.0, 2024-01-25 13:18:46.879
50.0, -1708.404999258928, -3732.5267429272644, -2816.301742432639, 11591.266407467425, -0.06400000303983688, -0.11200000531971455, 1.0240000486373901, 0.0, 0.0, 0.0, 0.0, 0.0, 1.706217526879413E9, 0.0, 2024-01-25 13:18:46.879
51.0, -1554.4781968826428, -3548.5087055074982, -3055.3580175503157, 11351.148000762332, -0.06400000303983688, -0.09600000455975533, 1.0240000486373901, 0.0, 0.0, 0.0, 0.0, 0.0, 1.706217526885737E9, 0.0, 2024-01-25 13:18:46.885
51.0, -1577.8039529062808, -3672.71078303596, -2831.89338534791, 11226.657950937282, -0.06400000303983688, -0.09600000455975533, 1.0240000486373901, 0.0, 0.0, 0.0, 0.0, 0.0, 1.706217526885737E9, 0.0, 2024-01-25 13:18:46.885
52.0, -1776.510447402019, -3814.350144107826, -2975.7093681939878, 11288.190524908248, -0.06400000303983688, -0.09600000455975533, 1.0240000486373901, 0.0, 0.0, 0.0, 0.0, 0.0, 1.706217526891524E9, 0.0, 2024-01-25 13:18:46.891
52.0, -1803.6078925309703, -3785.081687054597, -2826.3751629632898, 11180.543114533648, -0.06400000303983688, -0.09600000455975533, 1.0240000486373901, 0.0, 0.0, 0.0, 0.0, 0.0, 1.706217526891524E9, 0.0, 2024-01-25 13:18:46.891
53.0, -1633.062844701577, -3704.757985756267, -2777.275886395015, 11285.329501442146, -0.06400000303983688, -0.09600000455975533, 1.0240000486373901, 0.0, 0.0, 0.0, 0.0, 0.0, 1.706217526897724E9, 0.0, 2024-01-25 13:18:46.897
53.0, -1663.7075849385, -3726.453145399224, -2940.862850356847, 11198.462845171336, -0.06400000303983688, -0.09600000455975533, 1.0240000486373901, 0.0, 0.0, 0.0, 0.0, 0.0, 1.706217526897724E9, 0.0, 2024-01-25 13:18:46.897
54.0, -1698.647600274533, -3715.5214178287424, -2744.783635579981, 11165.340421213768, -0.06400000303983688, -0.09600000455975533, 1.0240000486373901, 0.0, 0.0, 0.0, 0.0, 0.0, 1.706217526905079E9, 0.0, 2024-01-25 13:18:46.905
54.0, -1733.6268845601007, -3823.398832050618, -2822.3267212612554, 11349.551063481253, -0.06400000303983688, -0.09600000455975533, 1.0240000486373901, 0.0, 0.0, 0.0, 0.0, 0.0, 1.706217526905079E9, 0.0, 2024-01-25 13:18:46.905
55.0, -1727.5027983826585, -3821.512052522972, -3037.587882910855, 11544.70091311913, -0.06400000303983688, -0.09600000455975533, 1.0240000486373901, 0.0, 0.0, 0.0, 0.0, 0.0, 1.706217526910728E9, 0.0, 2024-01-25 13:18:46.910
55.0, -1680.1556649436243, -3692.0853347564116, -3245.636647495907, 11638.18719231151, -0.06400000303983688, -0.09600000455975533, 1.0240000486373901, 0.0, 0.0, 0.0, 0.0, 0.0, 1.706217526910728E9, 0.0, 2024-01-25 13:18:46.910
56.0, -1468.073418256361, -3517.1141153294593, -3478.9858352812007, 11424.04613069864, -0.06400000303983688, -0.09600000455975533, 1.0240000486373901, 0.0, 0.0, 0.0, 0.0, 0.0, 1.706217526917754E9, 0.0, 2024-01-25 13:18:46.917
56.0, -1555.0148725262843, -3658.1345229586586, -3287.351491601672, 11260.911694631446, -0.06400000303983688, -0.09600000455975533, 1.0240000486373901, 0.0, 0.0, 0.0, 0.0, 0.0, 1.706217526917754E9, 0.0, 2024-01-25 13:18:46.917
57.0, -1753.8298241207376, -3786.141948692035, -3482.6172781381756, 11363.059582121205, -0.06400000303983688, -0.09600000455975533, 1.0240000486373901, 0.0, 0.0, 0.0, 0.0, 0.0, 1.706217526924721E9, 0.0, 2024-01-25 13:18:46.924
57.0, -1777.1649298942648, -3749.6180857247673, -3267.498232686892, 11234.820282590576, -0.06400000303983688, -0.09600000455975533, 1.0240000486373901, 0.0, 0.0, 0.0, 0.0, 0.0, 1.706217526924721E9, 0.0, 2024-01-25 13:18:46.924
58.0, -1589.31910486985, -3675.5661966521293, -3213.5857048756443, 11374.589693684597, -0.06400000303983688, -0.09600000455975533, 1.0240000486373901, 0.0, 0.0, 0.0, 0.0, 0.0, 1.706217526939089E9, 0.0, 2024-01-25 13:18:46.939
58.0, -1638.4613902876154, -3678.3225029194728, -3407.0956083829515, 11242.01024025539, -0.06400000303983688, -0.09600000455975533, 1.0240000486373901, 0.0, 0.0, 0.0, 0.0, 0.0, 1.706217526939089E9, 0.0, 2024-01-25 13:18:46.939
59.0, -1698.3502782280557, -3705.793938043993, -3219.0459588109516, 11184.615865585394, -0.06400000303983688, -0.09600000455975533, 1.0240000486373901, 0.0, 0.0, 0.0, 0.0, 0.0, 1.706217526943771E9, 0.0, 2024-01-25 13:18:46.943
59.0, -1698.671909624245, -3740.395492434036, -3274.7816878505982, 10961.639290327206, -0.06400000303983688, -0.09600000455975533, 1.0240000486373901, 0.0, 0.0, 0.0, 0.0, 0.0, 1.706217526943771E9, 0.0, 2024-01-25 13:18:46.943
60.0, -1707.3970962208696, -3792.7952307132073, -3501.6888979622163, 11073.236035055015, -0.06400000303983688, -0.09600000455975533, 1.0240000486373901, 0.0, 0.0, 0.0, 0.0, 0.0, 1.706217526948841E9, 0.0, 2024-01-25 13:18:46.948
60.0, -1646.1936334460042, -3642.1408407981507, -3736.002979936078, 11149.702029549051, -0.06400000303983688, -0.09600000455975533, 1.0240000486373901, 0.0, 0.0, 0.0, 0.0, 0.0, 1.706217526948841E9, 0.0, 2024-01-25 13:18:46.948
61.0, -1475.055811473634, -3479.1597406291403, -3498.437054950744, 10922.187085694633, -0.06400000303983688, -0.11200000531971455, 1.0240000486373901, 0.0, 0.0, 0.0, 0.0, 0.0, 1.706217526954408E9, 0.0, 2024-01-25 13:18:46.954
61.0, -1509.3170349677093, -3616.268212904688, -3268.7866282216273, 10802.873057408258, -0.06400000303983688, -0.11200000531971455, 1.0240000486373901, 0.0, 0.0, 0.0, 0.0, 0.0, 1.706217526954408E9, 0.0, 2024-01-25 13:18:46.954
62.0, -1733.3763112630695, -3772.9681510981172, -3453.6106140818447, 10888.916935688816, -0.04800000227987766, -0.11200000531971455, 1.0240000486373901, 0.0, 0.0, 0.0, 0.0, 0.0, 1.706217526958748E9, 0.0, 2024-01-25 13:18:46.958
62.0, -1743.3150953953154, -3756.2844573957846, -3280.718779030256, 10723.80596249504, -0.04800000227987766, -0.11200000531971455, 1.0240000486373901, 0.0, 0.0, 0.0, 0.0, 0.0, 1.706217526958748E9, 0.0, 2024-01-25 13:18:46.958
63.0, -1545.92504568398, -3660.806681476999, -3194.0110685075633, 10902.141221932136, -0.04800000227987766, -0.11200000531971455, 1.0240000486373901, 0.0, 0.0, 0.0, 0.0, 0.0, 1.706217526963739E9, 0.0, 2024-01-25 13:18:46.963
63.0, -1637.9939027931541, -3694.252606780734, -3414.7287441925146, 10825.480752640404, -0.04800000227987766, -0.11200000531971455, 1.0240000486373901, 0.0, 0.0, 0.0, 0.0, 0.0, 1.706217526963739E9, 0.0, 2024-01-25 13:18:46.963
64.0, -1682.8895318112336, -3682.0156541257165, -3659.649182440713, 10768.980214059819, -0.04800000227987766, -0.11200000531971455, 1.0240000486373901, 0.0, 0.0, 0.0, 0.0, 0.0, 1.706217526969606E9, 0.0, 2024-01-25 13:18:46.969
64.0, -1705.5383659428917, -3728.311875677202, -3769.160932943225, 10954.350225313567, -0.04800000227987766, -0.11200000531971455, 1.0240000486373901, 0.0, 0.0, 0.0, 0.0, 0.0, 1.706217526969606E9, 0.0, 2024-01-25 13:18:46.969
65.0, -1682.7941643623635, -3764.768420445267, -3987.6197090549394, 11082.71668144269, -0.04800000227987766, -0.11200000531971455, 1.0240000486373901, 0.0, 0.0, 0.0, 0.0, 0.0, 1.706217526983854E9, 0.0, 2024-01-25 13:18:46.983
65.0, -1642.8744722353294, -3672.987535632681, -4210.833767960314, 11157.028493562248, -0.04800000227987766, -0.11200000531971455, 1.0240000486373901, 0.0, 0.0, 0.0, 0.0, 0.0, 1.706217526983854E9, 0.0, 2024-01-25 13:18:46.983
66.0, -1452.6556806890294, -3469.465919943992, -4431.848765691742, 10965.465207981877, -0.04800000227987766, -0.11200000531971455, 1.0240000486373901, 0.0, 0.0, 0.0, 0.0, 0.0, 1.706217526989741E9, 0.0, 2024-01-25 13:18:46.989
66.0, -1498.2675005486235, -3604.32671234617, -4222.909904917236, 10799.810079344548, -0.04800000227987766, -0.11200000531971455, 1.0240000486373901, 0.0, 0.0, 0.0, 0.0, 0.0, 1.706217526989741E9, 0.0, 2024-01-25 13:18:46.989
67.0, -1718.631755687762, -3762.7956232186407, -4405.1084810085595, 10886.325185019523, -0.04800000227987766, -0.11200000531971455, 1.0240000486373901, 0.0, 0.0, 0.0, 0.0, 0.0, 1.706217527012743E9, 0.0, 2024-01-25 13:18:47.012
67.0, -1750.8753031557426, -3759.957039152272, -4236.999978000298, 10766.919529184233, -0.04800000227987766, -0.11200000531971455, 1.0240000486373901, 0.0, 0.0, 0.0, 0.0, 0.0, 1.706217527012743E9, 0.0, 2024-01-25 13:18:47.012
68.0, -1543.6006978615187, -3630.3115372383036, -4156.377084705513, 10906.890894875862, -0.04800000227987766, -0.11200000531971455, 1.0240000486373901, 0.0, 0.0, 0.0, 0.0, 0.0, 1.706217527018492E9, 0.0, 2024-01-25 13:18:47.018
